clear all;
close all;
clc;

N_f=4096*8;
N_t=N_f*8;


data_array_o=importdata('D:\110109_7.txt');

N_zero=8;

%% Zero filling

fft_data_array=fft(data_array_o);
zeros(1:(N_zero-1)*length(fft_data_array))=0;
zeros=zeros';
fft_data_array_p=[fft_data_array(1:round(length(fft_data_array)/2)); zeros; fft_data_array((round(length(fft_data_array)/2)+1):end)];
data_array=ifft(fft_data_array_p);


%% FD data calculation

%ref=data_array(real_max_index,:);

%% Calibrate by asign 444 and 888 pixel
grating_pitch=1000000/1200;      %nm
%center_wavelength=760;       %nm

wavelength_1=444;
wavelength_2=888;

index_1_o=3450;
index_2_o=2000;


index_1=N_zero*index_1_o;
index_2=N_zero*index_2_o;


spe_pixel=(wavelength_2-wavelength_1)/(index_2-index_1);   %spectral res of CCD (nm), can be minus, in fact its minus in current system
pixel=[1:length(data_array)]';  %1~4096
lambda_o=(pixel-index_1)*spe_pixel+wavelength_1;  %only used in peak finding

[dc_max_value dc_max_index]=max(data_array(:,1));
found_peak_wavelength=lambda_o(dc_max_index);
incidence_angle=asin(found_peak_wavelength/2/grating_pitch);     %假設是照此角度入射,rad

theta_1=asin((wavelength_1-0.5*found_peak_wavelength)/grating_pitch);
theta_2=asin((wavelength_2-0.5*found_peak_wavelength)/grating_pitch);

Q=(tan(theta_1-incidence_angle)-tan(theta_2-incidence_angle))/(index_1-index_2);      %roughly flens/pixel size
%%tan!
lambda=grating_pitch*sin((atan((pixel-dc_max_index)*Q)+incidence_angle))+found_peak_wavelength/2;   %atan!

%assumed_BW=137.28;

%short_coef=tan(asin((center_wavelength/2-assumed_BW/2)/grating_pitch)-incidence_angle);         %tan!
%long_coef=tan(asin((center_wavelength/2+assumed_BW/2)/grating_pitch)-incidence_angle);          %tan!
lambda_2=lambda(lambda>300);


CCD_eff=[0.6 0.7 0.8 0.9 0.95 0.9 0.6 0.2 0];
CCD_lambda=[400 500 600 700 750 800 900 1000 1100];

SiDe_eff=[0 0.18 0.28 0.38 0.45 0.51 0.55 0.6 0.2];
SiDe_lambda=[325 400 500 600 700 800 900 1000 1100];


lambda_2=[530.69
530.9
531.12
531.33
531.54
531.76
531.97
532.18
532.4
532.61
532.83
533.04
533.25
533.47
533.68
533.89
534.11
534.32
534.53
534.75
534.96
535.18
535.39
535.6
535.82
536.03
536.24
536.46
536.67
536.88
537.1
537.31
537.52
537.74
537.95
538.16
538.38
538.59
538.8
539.02
539.23
539.44
539.66
539.87
540.08
540.3
540.51
540.72
540.94
541.15
541.36
541.58
541.79
542
542.22
542.43
542.64
542.85
543.07
543.28
543.49
543.71
543.92
544.13
544.35
544.56
544.77
544.98
545.2
545.41
545.62
545.84
546.05
546.26
546.47
546.69
546.9
547.11
547.33
547.54
547.75
547.96
548.18
548.39
548.6
548.82
549.03
549.24
549.45
549.67
549.88
550.09
550.3
550.52
550.73
550.94
551.15
551.37
551.58
551.79
552
552.22
552.43
552.64
552.85
553.07
553.28
553.49
553.7
553.91
554.13
554.34
554.55
554.76
554.98
555.19
555.4
555.61
555.83
556.04
556.25
556.46
556.67
556.89
557.1
557.31
557.52
557.73
557.95
558.16
558.37
558.58
558.79
559.01
559.22
559.43
559.64
559.85
560.07
560.28
560.49
560.7
560.91
561.13
561.34
561.55
561.76
561.97
562.18
562.4
562.61
562.82
563.03
563.24
563.46
563.67
563.88
564.09
564.3
564.51
564.73
564.94
565.15
565.36
565.57
565.78
565.99
566.21
566.42
566.63
566.84
567.05
567.26
567.47
567.69
567.9
568.11
568.32
568.53
568.74
568.95
569.17
569.38
569.59
569.8
570.01
570.22
570.43
570.64
570.86
571.07
571.28
571.49
571.7
571.91
572.12
572.33
572.54
572.76
572.97
573.18
573.39
573.6
573.81
574.02
574.23
574.44
574.66
574.87
575.08
575.29
575.5
575.71
575.92
576.13
576.34
576.55
576.76
576.97
577.19
577.4
577.61
577.82
578.03
578.24
578.45
578.66
578.87
579.08
579.29
579.5
579.71
579.92
580.13
580.35
580.56
580.77
580.98
581.19
581.4
581.61
581.82
582.03
582.24
582.45
582.66
582.87
583.08
583.29
583.5
583.71
583.92
584.13
584.34
584.55
584.76
584.97
585.18
585.39
585.6
585.81
586.03
586.24
586.45
586.66
586.87
587.08
587.29
587.5
587.71
587.92
588.13
588.34
588.55
588.76
588.97
589.18
589.39
589.6
589.81
590.02
590.23
590.44
590.65
590.86
591.07
591.27
591.48
591.69
591.9
592.11
592.32
592.53
592.74
592.95
593.16
593.37
593.58
593.79
594
594.21
594.42
594.63
594.84
595.05
595.26
595.47
595.68
595.89
596.1
596.31
596.52
596.73
596.93
597.14
597.35
597.56
597.77
597.98
598.19
598.4
598.61
598.82
599.03
599.24
599.45
599.66
599.87
600.07
600.28
600.49
600.7
600.91
601.12
601.33
601.54
601.75
601.96
602.17
602.37
602.58
602.79
603
603.21
603.42
603.63
603.84
604.05
604.26
604.46
604.67
604.88
605.09
605.3
605.51
605.72
605.93
606.14
606.34
606.55
606.76
606.97
607.18
607.39
607.6
607.81
608.01
608.22
608.43
608.64
608.85
609.06
609.27
609.47
609.68
609.89
610.1
610.31
610.52
610.73
610.93
611.14
611.35
611.56
611.77
611.98
612.18
612.39
612.6
612.81
613.02
613.23
613.43
613.64
613.85
614.06
614.27
614.48
614.68
614.89
615.1
615.31
615.52
615.72
615.93
616.14
616.35
616.56
616.77
616.97
617.18
617.39
617.6
617.81
618.01
618.22
618.43
618.64
618.85
619.05
619.26
619.47
619.68
619.88
620.09
620.3
620.51
620.72
620.92
621.13
621.34
621.55
621.75
621.96
622.17
622.38
622.59
622.79
623
623.21
623.42
623.62
623.83
624.04
624.25
624.45
624.66
624.87
625.08
625.28
625.49
625.7
625.91
626.11
626.32
626.53
626.74
626.94
627.15
627.36
627.56
627.77
627.98
628.19
628.39
628.6
628.81
629.02
629.22
629.43
629.64
629.84
630.05
630.26
630.47
630.67
630.88
631.09
631.29
631.5
631.71
631.92
632.12
632.33
632.54
632.74
632.95
633.16
633.36
633.57
633.78
633.98
634.19
634.4
634.6
634.81
635.02
635.23
635.43
635.64
635.85
636.05
636.26
636.47
636.67
636.88
637.09
637.29
637.5
637.71
637.91
638.12
638.33
638.53
638.74
638.94
639.15
639.36
639.56
639.77
639.98
640.18
640.39
640.6
640.8
641.01
641.22
641.42
641.63
641.83
642.04
642.25
642.45
642.66
642.87
643.07
643.28
643.48
643.69
643.9
644.1
644.31
644.52
644.72
644.93
645.13
645.34
645.55
645.75
645.96
646.16
646.37
646.58
646.78
646.99
647.19
647.4
647.61
647.81
648.02
648.22
648.43
648.63
648.84
649.05
649.25
649.46
649.66
649.87
650.07
650.28
650.49
650.69
650.9
651.1
651.31
651.51
651.72
651.93
652.13
652.34
652.54
652.75
652.95
653.16
653.36
653.57
653.78
653.98
654.19
654.39
654.6
654.8
655.01
655.21
655.42
655.62
655.83
656.03
656.24
656.44
656.65
656.86
657.06
657.27
657.47
657.68
657.88
658.09
658.29
658.5
658.7
658.91
659.11
659.32
659.52
659.73
659.93
660.14
660.34
660.55
660.75
660.96
661.16
661.37
661.57
661.78
661.98
662.19
662.39
662.6
662.8
663.01
663.21
663.42
663.62
663.82
664.03
664.23
664.44
664.64
664.85
665.05
665.26
665.46
665.67
665.87
666.08
666.28
666.49
666.69
666.89
667.1
667.3
667.51
667.71
667.92
668.12
668.33
668.53
668.73
668.94
669.14
669.35
669.55
669.76
669.96
670.16
670.37
670.57
670.78
670.98
671.19
671.39
671.59
671.8
672
672.21
672.41
672.61
672.82
673.02
673.23
673.43
673.64
673.84
674.04
674.25
674.45
674.66
674.86
675.06
675.27
675.47
675.67
675.88
676.08
676.29
676.49
676.69
676.9
677.1
677.31
677.51
677.71
677.92
678.12
678.32
678.53
678.73
678.93
679.14
679.34
679.55
679.75
679.95
680.16
680.36
680.56
680.77
680.97
681.17
681.38
681.58
681.78
681.99
682.19
682.39
682.6
682.8
683
683.21
683.41
683.61
683.82
684.02
684.22
684.43
684.63
684.83
685.04
685.24
685.44
685.65
685.85
686.05
686.26
686.46
686.66
686.87
687.07
687.27
687.47
687.68
687.88
688.08
688.29
688.49
688.69
688.9
689.1
689.3
689.5
689.71
689.91
690.11
690.32
690.52
690.72
690.92
691.13
691.33
691.53
691.73
691.94
692.14
692.34
692.55
692.75
692.95
693.15
693.36
693.56
693.76
693.96
694.17
694.37
694.57
694.77
694.98
695.18
695.38
695.58
695.79
695.99
696.19
696.39
696.6
696.8
697
697.2
697.4
697.61
697.81
698.01
698.21
698.42
698.62
698.82
699.02
699.22
699.43
699.63
699.83
700.03
700.24
700.44
700.64
700.84
701.04
701.25
701.45
701.65
701.85
702.05
702.26
702.46
702.66
702.86
703.06
703.27
703.47
703.67
703.87
704.07
704.27
704.48
704.68
704.88
705.08
705.28
705.48
705.69
705.89
706.09
706.29
706.49
706.69
706.9
707.1
707.3
707.5
707.7
707.9
708.11
708.31
708.51
708.71
708.91
709.11
709.31
709.52
709.72
709.92
710.12
710.32
710.52
710.72
710.92
711.13
711.33
711.53
711.73
711.93
712.13
712.33
712.53
712.74
712.94
713.14
713.34
713.54
713.74
713.94
714.14
714.34
714.55
714.75
714.95
715.15
715.35
715.55
715.75
715.95
716.15
716.35
716.56
716.76
716.96
717.16
717.36
717.56
717.76
717.96
718.16
718.36
718.56
718.76
718.96
719.17
719.37
719.57
719.77
719.97
720.17
720.37
720.57
720.77
720.97
721.17
721.37
721.57
721.77
721.97
722.17
722.37
722.57
722.77
722.98
723.18
723.38
723.58
723.78
723.98
724.18
724.38
724.58
724.78
724.98
725.18
725.38
725.58
725.78
725.98
726.18
726.38
726.58
726.78
726.98
727.18
727.38
727.58
727.78
727.98
728.18
728.38
728.58
728.78
728.98
729.18
729.38
729.58
729.78
729.98
730.18
730.38
730.58
730.78
730.98
731.18
731.38
731.58
731.78
731.98
732.18
732.38
732.58
732.78
732.98
733.18
733.37
733.57
733.77
733.97
734.17
734.37
734.57
734.77
734.97
735.17
735.37
735.57
735.77
735.97
736.17
736.37
736.57
736.77
736.97
737.16
737.36
737.56
737.76
737.96
738.16
738.36
738.56
738.76
738.96
739.16
739.36
739.56
739.75
739.95
740.15
740.35
740.55
740.75
740.95
741.15
741.35
741.55
741.74
741.94
742.14
742.34
742.54
742.74
742.94
743.14
743.34
743.53
743.73
743.93
744.13
744.33
744.53
744.73
744.93
745.13
745.32
745.52
745.72
745.92
746.12
746.32
746.52
746.71
746.91
747.11
747.31
747.51
747.71
747.91
748.1
748.3
748.5
748.7
748.9
749.1
749.29
749.49
749.69
749.89
750.09
750.29
750.48
750.68
750.88
751.08
751.28
751.48
751.67
751.87
752.07
752.27
752.47
752.67
752.86
753.06
753.26
753.46
753.66
753.85
754.05
754.25
754.45
754.65
754.84
755.04
755.24
755.44
755.64
755.83
756.03
756.23
756.43
756.62
756.82
757.02
757.22
757.42
757.61
757.81
758.01
758.21
758.4
758.6
758.8
759
759.2
759.39
759.59
759.79
759.99
760.18
760.38
760.58
760.78
760.97
761.17
761.37
761.57
761.76
761.96
762.16
762.36
762.55
762.75
762.95
763.14
763.34
763.54
763.74
763.93
764.13
764.33
764.53
764.72
764.92
765.12
765.31
765.51
765.71
765.91
766.1
766.3
766.5
766.69
766.89
767.09
767.29
767.48
767.68
767.88
768.07
768.27
768.47
768.66
768.86
769.06
769.25
769.45
769.65
769.84
770.04
770.24
770.44
770.63
770.83
771.03
771.22
771.42
771.62
771.81
772.01
772.21
772.4
772.6
772.8
772.99
773.19
773.38
773.58
773.78
773.97
774.17
774.37
774.56
774.76
774.96
775.15
775.35
775.55
775.74
775.94
776.13
776.33
776.53
776.72
776.92
777.12
777.31
777.51
777.7
777.9
778.1
778.29
778.49
778.69
778.88
779.08
779.27
779.47
779.67
779.86
780.06
780.25
780.45
780.65
780.84
781.04
781.23
781.43
781.63
781.82
782.02
782.21
782.41
782.6
782.8
783
783.19
783.39
783.58
783.78
783.97
784.17
784.37
784.56
784.76
784.95
785.15
785.34
785.54
785.74
785.93
786.13
786.32
786.52
786.71
786.91
787.1
787.3
787.49
787.69
787.89
788.08
788.28
788.47
788.67
788.86
789.06
789.25
789.45
789.64
789.84
790.03
790.23
790.42
790.62
790.81
791.01
791.2
791.4
791.59
791.79
791.99
792.18
792.38
792.57
792.77
792.96
793.16
793.35
793.55
793.74
793.93
794.13
794.32
794.52
794.71
794.91
795.1
795.3
795.49
795.69
795.88
796.08
796.27
796.47
796.66
796.86
797.05
797.25
797.44
797.64
797.83
798.02
798.22
798.41
798.61
798.8
799
799.19
799.39
799.58
799.78
799.97
800.16
800.36
800.55
800.75
800.94
801.14
801.33
801.52
801.72
801.91
802.11
802.3
802.5
802.69
802.88
803.08
803.27
803.47
803.66
803.86
804.05
804.24
804.44
804.63
804.83
805.02
805.21
805.41
805.6
805.8
805.99
806.18
806.38
806.57
806.77
806.96
807.15
807.35
807.54
807.73
807.93
808.12
808.32
808.51
808.7
808.9
809.09
809.28
809.48
809.67
809.87
810.06
810.25
810.45
810.64
810.83
811.03
811.22
811.41
811.61
811.8
811.99
812.19
812.38
812.57
812.77
812.96
813.15
813.35
813.54
813.73
813.93
814.12
814.31
814.51
814.7
814.89
815.09
815.28
815.47
815.67
815.86
816.05
816.25
816.44
816.63
816.83
817.02
817.21
817.41
817.6
817.79
817.98
818.18
818.37
818.56
818.76
818.95
819.14
819.33
819.53
819.72
819.91
820.11
820.3
820.49
820.68
820.88
821.07
821.26
821.46
821.65
821.84
822.03
822.23
822.42
822.61
822.8
823
823.19
823.38
823.57
823.77
823.96
824.15
824.34
824.54
824.73
824.92
825.11
825.31
825.5
825.69
825.88
826.08
826.27
826.46
826.65
826.84
827.04
827.23
827.42
827.61
827.81
828
828.19
828.38
828.57
828.77
828.96
829.15
829.34
829.53
829.73
829.92
830.11
830.3
830.49
830.69
830.88
831.07
831.26
831.45
831.65
831.84
832.03
832.22
832.41
832.61
832.8
832.99
833.18
833.37
833.56
833.76
833.95
834.14
834.33
834.52
834.71
834.91
835.1
835.29
835.48
835.67
835.86
836.05
836.25
836.44
836.63
836.82
837.01
837.2
837.39
837.59
837.78
837.97
838.16
838.35
838.54
838.73
838.93
839.12
839.31
839.5
839.69
839.88
840.07
840.26
840.46
840.65
840.84
841.03
841.22
841.41
841.6
841.79
841.98
842.17
842.37
842.56
842.75
842.94
843.13
843.32
843.51
843.7
843.89
844.08
844.27
844.47
844.66
844.85
845.04
845.23
845.42
845.61
845.8
845.99
846.18
846.37
846.56
846.75
846.95
847.14
847.33
847.52
847.71
847.9
848.09
848.28
848.47
848.66
848.85
849.04
849.23
849.42
849.61
849.8
849.99
850.18
850.37
850.56
850.75
850.94
851.13
851.32
851.52
851.71
851.9
852.09
852.28
852.47
852.66
852.85
853.04
853.23
853.42
853.61
853.8
853.99
854.18
854.37
854.56
854.75
854.94
855.13
855.32
855.51
855.7
855.89
856.08
856.27
856.46
856.65
856.84
857.02
857.21
857.4
857.59
857.78
857.97
858.16
858.35
858.54
858.73
858.92
859.11
859.3
859.49
859.68
859.87
860.06
860.25
860.44
860.63
860.82
861.01
861.2
861.39
861.57
861.76
861.95
862.14
862.33
862.52
862.71
862.9
863.09
863.28
863.47
863.66
863.85
864.04
864.22
864.41
864.6
864.79
864.98
865.17
865.36
865.55
865.74
865.93
866.12
866.3
866.49
866.68
866.87
867.06
867.25
867.44
867.63
867.82
868
868.19
868.38
868.57
868.76
868.95
869.14
869.33
869.51
869.7
869.89
870.08
870.27
870.46
870.65
870.84
871.02
871.21
871.4
871.59
871.78
871.97
872.16
872.34
872.53
872.72
872.91
873.1
873.29
873.47
873.66
873.85
874.04
874.23
874.42
874.6
874.79
874.98
875.17
875.36
875.55
875.73
875.92
876.11
876.3
876.49
876.67
876.86
877.05
877.24
877.43
877.62
877.8
877.99
878.18
878.37
878.56
878.74
878.93
879.12
879.31
879.49
879.68
879.87
880.06
880.25
880.43
880.62
880.81
881
881.18
881.37
881.56
881.75
881.94
882.12
882.31
882.5
882.69
882.87
883.06
883.25
883.44
883.62
883.81
884
884.19
884.37
884.56
884.75
884.94
885.12
885.31
885.5
885.69
885.87
886.06
886.25
886.43
886.62
886.81
887
887.18
887.37
887.56
887.75
887.93
888.12
888.31
888.49
888.68
888.87
889.06
889.24
889.43
889.62
889.8
889.99
890.18
890.36
890.55
890.74
890.92
891.11
891.3
891.49
891.67
891.86
892.05
892.23
892.42
892.61
892.79
892.98
893.17
893.35
893.54
893.73
893.91
894.1
894.29
894.47
894.66
894.85
895.03
895.22
895.41
895.59
895.78
895.97
896.15
896.34
896.52
896.71
896.9
897.08
897.27
897.46
897.64
897.83
898.02
898.2
898.39
898.57
898.76
898.95
899.13
899.32
899.5
899.69
899.88
900.06
900.25
900.44
900.62
900.81
900.99
901.18
901.37
901.55
901.74
901.92
902.11
902.3
902.48
902.67
902.85
903.04
903.22
903.41
903.6
903.78
903.97
904.15
904.34
904.53
904.71
904.9
905.08
905.27
905.45
905.64
905.82
906.01
906.2
906.38
906.57
906.75
906.94
907.12
907.31
907.49
907.68
907.87
908.05
908.24
908.42
908.61
908.79
908.98
909.16
909.35
909.53
909.72
909.9
910.09
910.27
910.46
910.65
910.83
911.02
911.2
911.39
911.57
911.76
911.94
912.13
912.31
912.5
912.68
912.87
913.05
913.24
913.42
913.61
913.79
913.98
914.16
914.35
914.53
914.72
914.9
915.08
915.27
915.45
915.64
915.82
916.01
916.19
916.38
916.56
916.75
916.93
917.12
917.3
917.49
917.67
917.85
918.04
918.22
918.41
918.59
918.78
918.96
919.15
919.33
919.52
919.7
919.88
920.07
920.25
920.44
920.62
920.81
920.99
921.17
921.36
921.54
921.73
921.91
922.1
922.28
922.46
922.65
922.83
923.02
923.2
923.38
923.57
923.75
923.94
924.12
924.3
924.49
924.67
924.86
925.04
925.22
925.41
925.59
925.78
925.96
926.14
926.33
926.51
926.69
926.88
927.06
927.25
927.43
927.61
927.8
927.98
928.16
928.35
928.53
928.71
928.9
929.08
929.27
929.45
929.63
929.82
930
930.18
930.37
930.55
930.73
930.92
931.1
931.28
931.47
931.65
931.83
932.02
932.2
932.38
932.57
932.75
932.93
933.12
933.3
933.48
933.67
933.85
934.03
934.22
934.4
934.58
934.76
934.95
935.13
935.31
935.5
935.68
935.86
936.05
936.23
936.41
936.59
936.78
936.96
937.14
937.33
937.51
937.69
937.87
938.06
938.24
938.42
938.61
938.79
938.97
939.15
939.34
939.52
939.7
939.88
940.07
940.25
940.43
940.61
940.8
940.98
941.16
941.34
941.53
941.71
941.89
942.07
942.26
942.44
942.62
942.8
942.99
943.17
943.35
943.53
943.71
943.9
944.08
944.26
944.44
944.63
944.81
944.99
945.17
945.35
945.54
945.72
945.9
946.08
946.26
946.45
946.63
946.81
946.99
947.17
947.36
947.54
947.72
947.9
948.08
948.27
948.45
948.63
948.81
948.99
949.17
949.36
949.54
949.72
949.9
950.08
950.26
950.45
950.63
950.81
950.99
951.17
951.35
951.54
951.72
951.9
952.08
952.26
952.44
952.62
952.81
952.99
953.17
953.35
953.53
953.71
953.89
954.08
954.26
954.44
954.62
954.8
954.98
955.16
955.34
955.53
955.71
955.89
956.07
956.25
956.43
956.61
956.79
956.97
957.16
957.34
957.52
957.7
957.88
958.06
958.24
958.42
958.6
958.78
958.97
959.15
959.33
959.51
959.69
959.87
960.05
960.23
960.41
960.59
960.77
960.95
961.13
961.32
961.5
961.68
961.86
962.04
962.22
962.4
962.58
962.76
962.94
963.12
963.3
963.48
963.66
963.84
964.02
964.2
964.38
964.56
964.74
964.92
965.11
965.29
965.47
965.65
965.83
966.01
966.19
966.37
966.55
966.73
966.91
967.09
967.27
967.45
967.63
967.81
967.99
968.17
968.35
968.53
968.71
968.89
969.07
969.25
969.43
969.61
969.79
969.97
970.15
970.33
970.51
970.69
970.87
971.05
971.23
971.41
971.59
971.77
971.94
972.12
972.3
972.48
972.66
972.84
973.02
973.2
973.38
973.56
973.74
973.92
974.1
974.28
974.46
974.64
974.82
975
975.18
975.36
975.53
975.71
975.89
976.07
976.25
976.43
976.61
976.79
976.97
977.15
977.33
977.51
977.69
977.87
978.04
978.22
978.4
978.58
978.76
978.94
979.12
979.3
979.48
979.66
979.83
980.01
980.19
980.37
980.55
980.73
980.91
981.09
981.27
981.44
981.62
981.8
981.98
982.16
982.34
982.52
982.7
982.87
983.05
983.23
983.41
983.59
983.77
983.95
984.12
984.3
984.48
984.66
984.84
985.02
985.2
985.37
985.55
985.73
985.91
986.09
986.27
986.44
986.62
986.8
986.98
987.16
987.34
987.51
987.69
987.87
988.05
988.23
988.4
988.58
988.76
988.94
989.12
989.3
989.47
989.65
989.83
990.01
990.19
990.36
990.54
990.72
990.9
991.07
991.25
991.43
991.61
991.79
991.96
992.14
992.32
992.5
992.68
992.85
993.03
993.21
993.39
993.56
993.74
993.92
994.1
994.27
994.45
994.63
994.81
994.98
995.16
995.34
995.52
995.69
995.87
996.05
996.23
996.4
996.58
996.76
996.94
997.11
997.29
997.47
997.65
997.82
998
998.18
998.35
998.53
998.71
998.89
999.06
999.24
999.42
999.59
999.77
999.95
1000.13
1000.3
1000.48
1000.66
1000.83
1001.01
1001.19
1001.36
1001.54
1001.72
1001.9
1002.07
1002.25
1002.43
1002.6
1002.78
1002.96
1003.13
1003.31
1003.49
1003.66
1003.84
1004.02
1004.19
1004.37
1004.55
1004.72
1004.9
1005.08
1005.25
1005.43
1005.61
1005.78
1005.96
1006.14
1006.31
1006.49
1006.66
1006.84
1007.02
1007.19
1007.37
1007.55
1007.72
1007.9
1008.08
1008.25
1008.43
1008.6
1008.78
1008.96
1009.13
1009.31
1009.49
1009.66
1009.84
1010.01
1010.19
1010.37
1010.54
1010.72
1010.89
1011.07
1011.25
1011.42
1011.6
1011.77
1011.95
1012.13
1012.3
1012.48
1012.65
1012.83
1013
1013.18
1013.36
1013.53
1013.71
1013.88
1014.06
1014.23
1014.41
1014.59
1014.76
1014.94
1015.11
1015.29
1015.46
1015.64
1015.82
1015.99
1016.17
1016.34
1016.52
1016.69
1016.87
1017.04
1017.22
1017.39
1017.57
1017.75
1017.92
1018.1
1018.27
1018.45
1018.62
1018.8
1018.97
1019.15
1019.32
1019.5
1019.67
1019.85
1020.02
1020.2
1020.37
1020.55
1020.72
1020.9
1021.07
1021.25
1021.42
1021.6
1021.77
1021.95
1022.12
1022.3
1022.47
1022.65
1022.82
1023
1023.17
1023.35
1023.52
1023.7
1023.87
1024.05
1024.22
1024.4
1024.57
1024.75
1024.92
1025.1
1025.27
1025.44
1025.62
1025.79
1025.97
1026.14
1026.32
1026.49
1026.67
1026.84
1027.02
1027.19
1027.36
1027.54
1027.71
1027.89
1028.06
1028.24
1028.41
1028.58
1028.76
1028.93
1029.11
1029.28
1029.46
1029.63
1029.8
1029.98
1030.15
1030.33
1030.5
1030.68
1030.85
1031.02
1031.2
1031.37
1031.55
1031.72
1031.89
1032.07
1032.24
1032.42
1032.59
1032.76
1032.94
1033.11
1033.29
1033.46
1033.63
1033.81
1033.98
1034.15
1034.33
1034.5
1034.68
1034.85
1035.02
1035.2
1035.37
1035.54
1035.72
1035.89
1036.06
1036.24
1036.41
1036.59
1036.76
1036.93
1037.11
1037.28
1037.45
1037.63
1037.8
1037.97
1038.15
1038.32
1038.49
1038.67
1038.84
1039.01
1039.19
1039.36
1039.53
1039.71
1039.88
1040.05
1040.23
1040.4
1040.57
1040.74
1040.92
1041.09
1041.26
1041.44
1041.61
1041.78
1041.96
1042.13
1042.3
1042.48
1042.65
1042.82
1042.99
1043.17
1043.34
1043.51
1043.69
1043.86
1044.03
1044.2
1044.38
1044.55
1044.72
1044.89
1045.07
1045.24
1045.41
1045.59
1045.76
1045.93
1046.1
1046.28
1046.45
1046.62
1046.79
1046.97
1047.14
1047.31
1047.48
1047.66
1047.83
1048
1048.17
];


%CCD_eff_standard=interp1(CCD_lambda,CCD_eff,lambda_standard);

CCD_eff_interpoled=interp1(CCD_lambda,CCD_eff,lambda_2);

SiDe_eff_interpoled=interp1(SiDe_lambda,SiDe_eff,lambda_2);


plot(lambda_2,CCD_eff_interpoled);
%[peak index_peak]=max(ref);
%index_long=find(ref>0.5*max(ref),1,'last');
%index_short=find(ref>0.5*max(ref),1,'first');

%Q=178/(index_long-index_short);
%lambda=((-(pixel-index_peak)*Q+found_peak_wavelength));   %前面的負號很重要! 影響freq domain是否接近guassian (不過為什麼差一個負號dispersion的broaden效應好像也會變大? 因為carrier in lambda domain有chirp, 但在freq domain應該不太有)

%Q=(long_coef-short_coef)/(index_long-index_short);      %roughly flens/pixel size
%lambda=grating_pitch*sin((asin((index_peak-pixel)*Q)+incidence_angle))+center_wavelength/2;

%Q=(long_coef-short_coef)/(index_long-index_short);      %roughly flens/pixel size
%lambda=grating_pitch*sin((atan((index_peak-pixel)*Q)+incidence_angle))+center_wavelength/2;   %atan!

%使用新的演算法後, 最短wavelength從166micron -> 10micron, 可能造成點數不夠, 所以先去掉不要的data

%ref=ref(lambda>400);
%lambda2=lambda2(lambda>300);

lambda=[
530.69
530.9
531.12
531.33
531.54
531.76
531.97
532.18
532.4
532.61
532.83
533.04
533.25
533.47
533.68
533.89
534.11
534.32
534.53
534.75
534.96
535.18
535.39
535.6
535.82
536.03
536.24
536.46
536.67
536.88
537.1
537.31
537.52
537.74
537.95
538.16
538.38
538.59
538.8
539.02
539.23
539.44
539.66
539.87
540.08
540.3
540.51
540.72
540.94
541.15
541.36
541.58
541.79
542
542.22
542.43
542.64
542.85
543.07
543.28
543.49
543.71
543.92
544.13
544.35
544.56
544.77
544.98
545.2
545.41
545.62
545.84
546.05
546.26
546.47
546.69
546.9
547.11
547.33
547.54
547.75
547.96
548.18
548.39
548.6
548.82
549.03
549.24
549.45
549.67
549.88
550.09
550.3
550.52
550.73
550.94
551.15
551.37
551.58
551.79
552
552.22
552.43
552.64
552.85
553.07
553.28
553.49
553.7
553.91
554.13
554.34
554.55
554.76
554.98
555.19
555.4
555.61
555.83
556.04
556.25
556.46
556.67
556.89
557.1
557.31
557.52
557.73
557.95
558.16
558.37
558.58
558.79
559.01
559.22
559.43
559.64
559.85
560.07
560.28
560.49
560.7
560.91
561.13
561.34
561.55
561.76
561.97
562.18
562.4
562.61
562.82
563.03
563.24
563.46
563.67
563.88
564.09
564.3
564.51
564.73
564.94
565.15
565.36
565.57
565.78
565.99
566.21
566.42
566.63
566.84
567.05
567.26
567.47
567.69
567.9
568.11
568.32
568.53
568.74
568.95
569.17
569.38
569.59
569.8
570.01
570.22
570.43
570.64
570.86
571.07
571.28
571.49
571.7
571.91
572.12
572.33
572.54
572.76
572.97
573.18
573.39
573.6
573.81
574.02
574.23
574.44
574.66
574.87
575.08
575.29
575.5
575.71
575.92
576.13
576.34
576.55
576.76
576.97
577.19
577.4
577.61
577.82
578.03
578.24
578.45
578.66
578.87
579.08
579.29
579.5
579.71
579.92
580.13
580.35
580.56
580.77
580.98
581.19
581.4
581.61
581.82
582.03
582.24
582.45
582.66
582.87
583.08
583.29
583.5
583.71
583.92
584.13
584.34
584.55
584.76
584.97
585.18
585.39
585.6
585.81
586.03
586.24
586.45
586.66
586.87
587.08
587.29
587.5
587.71
587.92
588.13
588.34
588.55
588.76
588.97
589.18
589.39
589.6
589.81
590.02
590.23
590.44
590.65
590.86
591.07
591.27
591.48
591.69
591.9
592.11
592.32
592.53
592.74
592.95
593.16
593.37
593.58
593.79
594
594.21
594.42
594.63
594.84
595.05
595.26
595.47
595.68
595.89
596.1
596.31
596.52
596.73
596.93
597.14
597.35
597.56
597.77
597.98
598.19
598.4
598.61
598.82
599.03
599.24
599.45
599.66
599.87
600.07
600.28
600.49
600.7
600.91
601.12
601.33
601.54
601.75
601.96
602.17
602.37
602.58
602.79
603
603.21
603.42
603.63
603.84
604.05
604.26
604.46
604.67
604.88
605.09
605.3
605.51
605.72
605.93
606.14
606.34
606.55
606.76
606.97
607.18
607.39
607.6
607.81
608.01
608.22
608.43
608.64
608.85
609.06
609.27
609.47
609.68
609.89
610.1
610.31
610.52
610.73
610.93
611.14
611.35
611.56
611.77
611.98
612.18
612.39
612.6
612.81
613.02
613.23
613.43
613.64
613.85
614.06
614.27
614.48
614.68
614.89
615.1
615.31
615.52
615.72
615.93
616.14
616.35
616.56
616.77
616.97
617.18
617.39
617.6
617.81
618.01
618.22
618.43
618.64
618.85
619.05
619.26
619.47
619.68
619.88
620.09
620.3
620.51
620.72
620.92
621.13
621.34
621.55
621.75
621.96
622.17
622.38
622.59
622.79
623
623.21
623.42
623.62
623.83
624.04
624.25
624.45
624.66
624.87
625.08
625.28
625.49
625.7
625.91
626.11
626.32
626.53
626.74
626.94
627.15
627.36
627.56
627.77
627.98
628.19
628.39
628.6
628.81
629.02
629.22
629.43
629.64
629.84
630.05
630.26
630.47
630.67
630.88
631.09
631.29
631.5
631.71
631.92
632.12
632.33
632.54
632.74
632.95
633.16
633.36
633.57
633.78
633.98
634.19
634.4
634.6
634.81
635.02
635.23
635.43
635.64
635.85
636.05
636.26
636.47
636.67
636.88
637.09
637.29
637.5
637.71
637.91
638.12
638.33
638.53
638.74
638.94
639.15
639.36
639.56
639.77
639.98
640.18
640.39
640.6
640.8
641.01
641.22
641.42
641.63
641.83
642.04
642.25
642.45
642.66
642.87
643.07
643.28
643.48
643.69
643.9
644.1
644.31
644.52
644.72
644.93
645.13
645.34
645.55
645.75
645.96
646.16
646.37
646.58
646.78
646.99
647.19
647.4
647.61
647.81
648.02
648.22
648.43
648.63
648.84
649.05
649.25
649.46
649.66
649.87
650.07
650.28
650.49
650.69
650.9
651.1
651.31
651.51
651.72
651.93
652.13
652.34
652.54
652.75
652.95
653.16
653.36
653.57
653.78
653.98
654.19
654.39
654.6
654.8
655.01
655.21
655.42
655.62
655.83
656.03
656.24
656.44
656.65
656.86
657.06
657.27
657.47
657.68
657.88
658.09
658.29
658.5
658.7
658.91
659.11
659.32
659.52
659.73
659.93
660.14
660.34
660.55
660.75
660.96
661.16
661.37
661.57
661.78
661.98
662.19
662.39
662.6
662.8
663.01
663.21
663.42
663.62
663.82
664.03
664.23
664.44
664.64
664.85
665.05
665.26
665.46
665.67
665.87
666.08
666.28
666.49
666.69
666.89
667.1
667.3
667.51
667.71
667.92
668.12
668.33
668.53
668.73
668.94
669.14
669.35
669.55
669.76
669.96
670.16
670.37
670.57
670.78
670.98
671.19
671.39
671.59
671.8
672
672.21
672.41
672.61
672.82
673.02
673.23
673.43
673.64
673.84
674.04
674.25
674.45
674.66
674.86
675.06
675.27
675.47
675.67
675.88
676.08
676.29
676.49
676.69
676.9
677.1
677.31
677.51
677.71
677.92
678.12
678.32
678.53
678.73
678.93
679.14
679.34
679.55
679.75
679.95
680.16
680.36
680.56
680.77
680.97
681.17
681.38
681.58
681.78
681.99
682.19
682.39
682.6
682.8
683
683.21
683.41
683.61
683.82
684.02
684.22
684.43
684.63
684.83
685.04
685.24
685.44
685.65
685.85
686.05
686.26
686.46
686.66
686.87
687.07
687.27
687.47
687.68
687.88
688.08
688.29
688.49
688.69
688.9
689.1
689.3
689.5
689.71
689.91
690.11
690.32
690.52
690.72
690.92
691.13
691.33
691.53
691.73
691.94
692.14
692.34
692.55
692.75
692.95
693.15
693.36
693.56
693.76
693.96
694.17
694.37
694.57
694.77
694.98
695.18
695.38
695.58
695.79
695.99
696.19
696.39
696.6
696.8
697
697.2
697.4
697.61
697.81
698.01
698.21
698.42
698.62
698.82
699.02
699.22
699.43
699.63
699.83
700.03
700.24
700.44
700.64
700.84
701.04
701.25
701.45
701.65
701.85
702.05
702.26
702.46
702.66
702.86
703.06
703.27
703.47
703.67
703.87
704.07
704.27
704.48
704.68
704.88
705.08
705.28
705.48
705.69
705.89
706.09
706.29
706.49
706.69
706.9
707.1
707.3
707.5
707.7
707.9
708.11
708.31
708.51
708.71
708.91
709.11
709.31
709.52
709.72
709.92
710.12
710.32
710.52
710.72
710.92
711.13
711.33
711.53
711.73
711.93
712.13
712.33
712.53
712.74
712.94
713.14
713.34
713.54
713.74
713.94
714.14
714.34
714.55
714.75
714.95
715.15
715.35
715.55
715.75
715.95
716.15
716.35
716.56
716.76
716.96
717.16
717.36
717.56
717.76
717.96
718.16
718.36
718.56
718.76
718.96
719.17
719.37
719.57
719.77
719.97
720.17
720.37
720.57
720.77
720.97
721.17
721.37
721.57
721.77
721.97
722.17
722.37
722.57
722.77
722.98
723.18
723.38
723.58
723.78
723.98
724.18
724.38
724.58
724.78
724.98
725.18
725.38
725.58
725.78
725.98
726.18
726.38
726.58
726.78
726.98
727.18
727.38
727.58
727.78
727.98
728.18
728.38
728.58
728.78
728.98
729.18
729.38
729.58
729.78
729.98
730.18
730.38
730.58
730.78
730.98
731.18
731.38
731.58
731.78
731.98
732.18
732.38
732.58
732.78
732.98
733.18
733.37
733.57
733.77
733.97
734.17
734.37
734.57
734.77
734.97
735.17
735.37
735.57
735.77
735.97
736.17
736.37
736.57
736.77
736.97
737.16
737.36
737.56
737.76
737.96
738.16
738.36
738.56
738.76
738.96
739.16
739.36
739.56
739.75
739.95
740.15
740.35
740.55
740.75
740.95
741.15
741.35
741.55
741.74
741.94
742.14
742.34
742.54
742.74
742.94
743.14
743.34
743.53
743.73
743.93
744.13
744.33
744.53
744.73
744.93
745.13
745.32
745.52
745.72
745.92
746.12
746.32
746.52
746.71
746.91
747.11
747.31
747.51
747.71
747.91
748.1
748.3
748.5
748.7
748.9
749.1
749.29
749.49
749.69
749.89
750.09
750.29
750.48
750.68
750.88
751.08
751.28
751.48
751.67
751.87
752.07
752.27
752.47
752.67
752.86
753.06
753.26
753.46
753.66
753.85
754.05
754.25
754.45
754.65
754.84
755.04
755.24
755.44
755.64
755.83
756.03
756.23
756.43
756.62
756.82
757.02
757.22
757.42
757.61
757.81
758.01
758.21
758.4
758.6
758.8
759
759.2
759.39
759.59
759.79
759.99
760.18
760.38
760.58
760.78
760.97
761.17
761.37
761.57
761.76
761.96
762.16
762.36
762.55
762.75
762.95
763.14
763.34
763.54
763.74
763.93
764.13
764.33
764.53
764.72
764.92
765.12
765.31
765.51
765.71
765.91
766.1
766.3
766.5
766.69
766.89
767.09
767.29
767.48
767.68
767.88
768.07
768.27
768.47
768.66
768.86
769.06
769.25
769.45
769.65
769.84
770.04
770.24
770.44
770.63
770.83
771.03
771.22
771.42
771.62
771.81
772.01
772.21
772.4
772.6
772.8
772.99
773.19
773.38
773.58
773.78
773.97
774.17
774.37
774.56
774.76
774.96
775.15
775.35
775.55
775.74
775.94
776.13
776.33
776.53
776.72
776.92
777.12
777.31
777.51
777.7
777.9
778.1
778.29
778.49
778.69
778.88
779.08
779.27
779.47
779.67
779.86
780.06
780.25
780.45
780.65
780.84
781.04
781.23
781.43
781.63
781.82
782.02
782.21
782.41
782.6
782.8
783
783.19
783.39
783.58
783.78
783.97
784.17
784.37
784.56
784.76
784.95
785.15
785.34
785.54
785.74
785.93
786.13
786.32
786.52
786.71
786.91
787.1
787.3
787.49
787.69
787.89
788.08
788.28
788.47
788.67
788.86
789.06
789.25
789.45
789.64
789.84
790.03
790.23
790.42
790.62
790.81
791.01
791.2
791.4
791.59
791.79
791.99
792.18
792.38
792.57
792.77
792.96
793.16
793.35
793.55
793.74
793.93
794.13
794.32
794.52
794.71
794.91
795.1
795.3
795.49
795.69
795.88
796.08
796.27
796.47
796.66
796.86
797.05
797.25
797.44
797.64
797.83
798.02
798.22
798.41
798.61
798.8
799
799.19
799.39
799.58
799.78
799.97
800.16
800.36
800.55
800.75
800.94
801.14
801.33
801.52
801.72
801.91
802.11
802.3
802.5
802.69
802.88
803.08
803.27
803.47
803.66
803.86
804.05
804.24
804.44
804.63
804.83
805.02
805.21
805.41
805.6
805.8
805.99
806.18
806.38
806.57
806.77
806.96
807.15
807.35
807.54
807.73
807.93
808.12
808.32
808.51
808.7
808.9
809.09
809.28
809.48
809.67
809.87
810.06
810.25
810.45
810.64
810.83
811.03
811.22
811.41
811.61
811.8
811.99
812.19
812.38
812.57
812.77
812.96
813.15
813.35
813.54
813.73
813.93
814.12
814.31
814.51
814.7
814.89
815.09
815.28
815.47
815.67
815.86
816.05
816.25
816.44
816.63
816.83
817.02
817.21
817.41
817.6
817.79
817.98
818.18
818.37
818.56
818.76
818.95
819.14
819.33
819.53
819.72
819.91
820.11
820.3
820.49
820.68
820.88
821.07
821.26
821.46
821.65
821.84
822.03
822.23
822.42
822.61
822.8
823
823.19
823.38
823.57
823.77
823.96
824.15
824.34
824.54
824.73
824.92
825.11
825.31
825.5
825.69
825.88
826.08
826.27
826.46
826.65
826.84
827.04
827.23
827.42
827.61
827.81
828
828.19
828.38
828.57
828.77
828.96
829.15
829.34
829.53
829.73
829.92
830.11
830.3
830.49
830.69
830.88
831.07
831.26
831.45
831.65
831.84
832.03
832.22
832.41
832.61
832.8
832.99
833.18
833.37
833.56
833.76
833.95
834.14
834.33
834.52
834.71
834.91
835.1
835.29
835.48
835.67
835.86
836.05
836.25
836.44
836.63
836.82
837.01
837.2
837.39
837.59
837.78
837.97
838.16
838.35
838.54
838.73
838.93
839.12
839.31
839.5
839.69
839.88
840.07
840.26
840.46
840.65
840.84
841.03
841.22
841.41
841.6
841.79
841.98
842.17
842.37
842.56
842.75
842.94
843.13
843.32
843.51
843.7
843.89
844.08
844.27
844.47
844.66
844.85
845.04
845.23
845.42
845.61
845.8
845.99
846.18
846.37
846.56
846.75
846.95
847.14
847.33
847.52
847.71
847.9
848.09
848.28
848.47
848.66
848.85
849.04
849.23
849.42
849.61
849.8
849.99
850.18
850.37
850.56
850.75
850.94
851.13
851.32
851.52
851.71
851.9
852.09
852.28
852.47
852.66
852.85
853.04
853.23
853.42
853.61
853.8
853.99
854.18
854.37
854.56
854.75
854.94
855.13
855.32
855.51
855.7
855.89
856.08
856.27
856.46
856.65
856.84
857.02
857.21
857.4
857.59
857.78
857.97
858.16
858.35
858.54
858.73
858.92
859.11
859.3
859.49
859.68
859.87
860.06
860.25
860.44
860.63
860.82
861.01
861.2
861.39
861.57
861.76
861.95
862.14
862.33
862.52
862.71
862.9
863.09
863.28
863.47
863.66
863.85
864.04
864.22
864.41
864.6
864.79
864.98
865.17
865.36
865.55
865.74
865.93
866.12
866.3
866.49
866.68
866.87
867.06
867.25
867.44
867.63
867.82
868
868.19
868.38
868.57
868.76
868.95
869.14
869.33
869.51
869.7
869.89
870.08
870.27
870.46
870.65
870.84
871.02
871.21
871.4
871.59
871.78
871.97
872.16
872.34
872.53
872.72
872.91
873.1
873.29
873.47
873.66
873.85
874.04
874.23
874.42
874.6
874.79
874.98
875.17
875.36
875.55
875.73
875.92
876.11
876.3
876.49
876.67
876.86
877.05
877.24
877.43
877.62
877.8
877.99
878.18
878.37
878.56
878.74
878.93
879.12
879.31
879.49
879.68
879.87
880.06
880.25
880.43
880.62
880.81
881
881.18
881.37
881.56
881.75
881.94
882.12
882.31
882.5
882.69
882.87
883.06
883.25
883.44
883.62
883.81
884
884.19
884.37
884.56
884.75
884.94
885.12
885.31
885.5
885.69
885.87
886.06
886.25
886.43
886.62
886.81
887
887.18
887.37
887.56
887.75
887.93
888.12
888.31
888.49
888.68
888.87
889.06
889.24
889.43
889.62
889.8
889.99
890.18
890.36
890.55
890.74
890.92
891.11
891.3
891.49
891.67
891.86
892.05
892.23
892.42
892.61
892.79
892.98
893.17
893.35
893.54
893.73
893.91
894.1
894.29
894.47
894.66
894.85
895.03
895.22
895.41
895.59
895.78
895.97
896.15
896.34
896.52
896.71
896.9
897.08
897.27
897.46
897.64
897.83
898.02
898.2
898.39
898.57
898.76
898.95
899.13
899.32
899.5
899.69
899.88
900.06
900.25
900.44
900.62
900.81
900.99
901.18
901.37
901.55
901.74
901.92
902.11
902.3
902.48
902.67
902.85
903.04
903.22
903.41
903.6
903.78
903.97
904.15
904.34
904.53
904.71
904.9
905.08
905.27
905.45
905.64
905.82
906.01
906.2
906.38
906.57
906.75
906.94
907.12
907.31
907.49
907.68
907.87
908.05
908.24
908.42
908.61
908.79
908.98
909.16
909.35
909.53
909.72
909.9
910.09
910.27
910.46
910.65
910.83
911.02
911.2
911.39
911.57
911.76
911.94
912.13
912.31
912.5
912.68
912.87
913.05
913.24
913.42
913.61
913.79
913.98
914.16
914.35
914.53
914.72
914.9
915.08
915.27
915.45
915.64
915.82
916.01
916.19
916.38
916.56
916.75
916.93
917.12
917.3
917.49
917.67
917.85
918.04
918.22
918.41
918.59
918.78
918.96
919.15
919.33
919.52
919.7
919.88
920.07
920.25
920.44
920.62
920.81
920.99
921.17
921.36
921.54
921.73
921.91
922.1
922.28
922.46
922.65
922.83
923.02
923.2
923.38
923.57
923.75
923.94
924.12
924.3
924.49
924.67
924.86
925.04
925.22
925.41
925.59
925.78
925.96
926.14
926.33
926.51
926.69
926.88
927.06
927.25
927.43
927.61
927.8
927.98
928.16
928.35
928.53
928.71
928.9
929.08
929.27
929.45
929.63
929.82
930
930.18
930.37
930.55
930.73
930.92
931.1
931.28
931.47
931.65
931.83
932.02
932.2
932.38
932.57
932.75
932.93
933.12
933.3
933.48
933.67
933.85
934.03
934.22
934.4
934.58
934.76
934.95
935.13
935.31
935.5
935.68
935.86
936.05
936.23
936.41
936.59
936.78
936.96
937.14
937.33
937.51
937.69
937.87
938.06
938.24
938.42
938.61
938.79
938.97
939.15
939.34
939.52
939.7
939.88
940.07
940.25
940.43
940.61
940.8
940.98
941.16
941.34
941.53
941.71
941.89
942.07
942.26
942.44
942.62
942.8
942.99
943.17
943.35
943.53
943.71
943.9
944.08
944.26
944.44
944.63
944.81
944.99
945.17
945.35
945.54
945.72
945.9
946.08
946.26
946.45
946.63
946.81
946.99
947.17
947.36
947.54
947.72
947.9
948.08
948.27
948.45
948.63
948.81
948.99
949.17
949.36
949.54
949.72
949.9
950.08
950.26
950.45
950.63
950.81
950.99
951.17
951.35
951.54
951.72
951.9
952.08
952.26
952.44
952.62
952.81
952.99
953.17
953.35
953.53
953.71
953.89
954.08
954.26
954.44
954.62
954.8
954.98
955.16
955.34
955.53
955.71
955.89
956.07
956.25
956.43
956.61
956.79
956.97
957.16
957.34
957.52
957.7
957.88
958.06
958.24
958.42
958.6
958.78
958.97
959.15
959.33
959.51
959.69
959.87
960.05
960.23
960.41
960.59
960.77
960.95
961.13
961.32
961.5
961.68
961.86
962.04
962.22
962.4
962.58
962.76
962.94
963.12
963.3
963.48
963.66
963.84
964.02
964.2
964.38
964.56
964.74
964.92
965.11
965.29
965.47
965.65
965.83
966.01
966.19
966.37
966.55
966.73
966.91
967.09
967.27
967.45
967.63
967.81
967.99
968.17
968.35
968.53
968.71
968.89
969.07
969.25
969.43
969.61
969.79
969.97
970.15
970.33
970.51
970.69
970.87
971.05
971.23
971.41
971.59
971.77
971.94
972.12
972.3
972.48
972.66
972.84
973.02
973.2
973.38
973.56
973.74
973.92
974.1
974.28
974.46
974.64
974.82
975
975.18
975.36
975.53
975.71
975.89
976.07
976.25
976.43
976.61
976.79
976.97
977.15
977.33
977.51
977.69
977.87
978.04
978.22
978.4
978.58
978.76
978.94
979.12
979.3
979.48
979.66
979.83
980.01
980.19
980.37
980.55
980.73
980.91
981.09
981.27
981.44
981.62
981.8
981.98
982.16
982.34
982.52
982.7
982.87
983.05
983.23
983.41
983.59
983.77
983.95
984.12
984.3
984.48
984.66
984.84
985.02
985.2
985.37
985.55
985.73
985.91
986.09
986.27
986.44
986.62
986.8
986.98
987.16
987.34
987.51
987.69
987.87
988.05
988.23
988.4
988.58
988.76
988.94
989.12
989.3
989.47
989.65
989.83
990.01
990.19
990.36
990.54
990.72
990.9
991.07
991.25
991.43
991.61
991.79
991.96
992.14
992.32
992.5
992.68
992.85
993.03
993.21
993.39
993.56
993.74
993.92
994.1
994.27
994.45
994.63
994.81
994.98
995.16
995.34
995.52
995.69
995.87
996.05
996.23
996.4
996.58
996.76
996.94
997.11
997.29
997.47
997.65
997.82
998
998.18
998.35
998.53
998.71
998.89
999.06
999.24
999.42
999.59
999.77
999.95
1000.13
1000.3
1000.48
1000.66
1000.83
1001.01
1001.19
1001.36
1001.54
1001.72
1001.9
1002.07
1002.25
1002.43
1002.6
1002.78
1002.96
1003.13
1003.31
1003.49
1003.66
1003.84
1004.02
1004.19
1004.37
1004.55
1004.72
1004.9
1005.08
1005.25
1005.43
1005.61
1005.78
1005.96
1006.14
1006.31
1006.49
1006.66
1006.84
1007.02
1007.19
1007.37
1007.55
1007.72
1007.9
1008.08
1008.25
1008.43
1008.6
1008.78
1008.96
1009.13
1009.31
1009.49
1009.66
1009.84
1010.01
1010.19
1010.37
1010.54
1010.72
1010.89
1011.07
1011.25
1011.42
1011.6
1011.77
1011.95
1012.13
1012.3
1012.48
1012.65
1012.83
1013
1013.18
1013.36
1013.53
1013.71
1013.88
1014.06
1014.23
1014.41
1014.59
1014.76
1014.94
1015.11
1015.29
1015.46
1015.64
1015.82
1015.99
1016.17
1016.34
1016.52
1016.69
1016.87
1017.04
1017.22
1017.39
1017.57
1017.75
1017.92
1018.1
1018.27
1018.45
1018.62
1018.8
1018.97
1019.15
1019.32
1019.5
1019.67
1019.85
1020.02
1020.2
1020.37
1020.55
1020.72
1020.9
1021.07
1021.25
1021.42
1021.6
1021.77
1021.95
1022.12
1022.3
1022.47
1022.65
1022.82
1023
1023.17
1023.35
1023.52
1023.7
1023.87
1024.05
1024.22
1024.4
1024.57
1024.75
1024.92
1025.1
1025.27
1025.44
1025.62
1025.79
1025.97
1026.14
1026.32
1026.49
1026.67
1026.84
1027.02
1027.19
1027.36
1027.54
1027.71
1027.89
1028.06
1028.24
1028.41
1028.58
1028.76
1028.93
1029.11
1029.28
1029.46
1029.63
1029.8
1029.98
1030.15
1030.33
1030.5
1030.68
1030.85
1031.02
1031.2
1031.37
1031.55
1031.72
1031.89
1032.07
1032.24
1032.42
1032.59
1032.76
1032.94
1033.11
1033.29
1033.46
1033.63
1033.81
1033.98
1034.15
1034.33
1034.5
1034.68
1034.85
1035.02
1035.2
1035.37
1035.54
1035.72
1035.89
1036.06
1036.24
1036.41
1036.59
1036.76
1036.93
1037.11
1037.28
1037.45
1037.63
1037.8
1037.97
1038.15
1038.32
1038.49
1038.67
1038.84
1039.01
1039.19
1039.36
1039.53
1039.71
1039.88
1040.05
1040.23
1040.4
1040.57
1040.74
1040.92
1041.09
1041.26
1041.44
1041.61
1041.78
1041.96
1042.13
1042.3
1042.48
1042.65
1042.82
1042.99
1043.17
1043.34
1043.51
1043.69
1043.86
1044.03
1044.2
1044.38
1044.55
1044.72
1044.89
1045.07
1045.24
1045.41
1045.59
1045.76
1045.93
1046.1
1046.28
1046.45
1046.62
1046.79
1046.97
1047.14
1047.31
1047.48
1047.66
1047.83
1048
1048.17
];

%% x-axis
c=3E8;                     %m/sec
freq=c./(lambda_2*1E-9);     %Hz orignal freq array
d_f=max(freq)/(N_f-1);
fx=0:d_f:max(freq);        %freq after interpolation
d_t=1/(d_f*N_t);
%d_t=1/(d_f*2*N_f);
time=[-0.5*(N_t-1)*d_t:d_t:0.5*N_t*d_t]'/2;%/2是因為一來一回
%time=[-(N_f-1)*d_t:d_t:N_f*d_t]/2;  %/2是因為一來一回
length_space_FD=round(length(time)/25);
space_FD=c*time(1:length_space_FD); % 暫定只用array前1/100 (大約也有100 micron左右吧)
space_FD=(space_FD-space_FD(1))*1E6;                     % shift to zero & m to micron
%plot(lambda,inter,lambda2,inter);

%% data related


S0ccd=[
0.00119
9.10405E-4
6.91803E-4
9.69074E-4
-6.09975E-4
9.27448E-4
5.725E-4
2.38826E-4
-1.3128E-5
6.98527E-4
2.15363E-4
0.00134
3.89369E-4
6.30421E-4
4.83075E-4
-5.11147E-4
-1.59349E-4
0.00153
0.0012
-5.40465E-4
0.00146
9.09122E-4
7.5116E-4
0.00121
-1.13301E-4
0.00119
-4.55182E-4
0.00106
9.1311E-4
3.13058E-4
6.71012E-5
-4.095E-4
7.68272E-4
-8.26995E-4
0.00145
-3.44002E-5
6.66239E-4
0.0011
7.32692E-4
-3.68966E-4
6.63517E-4
1.40776E-4
3.72637E-5
7.62946E-4
7.3677E-4
-2.26511E-4
0.00111
4.14727E-4
7.97458E-4
7.65154E-4
6.66721E-4
2.51062E-4
0.00108
2.56696E-4
4.06161E-4
4.40731E-4
7.26549E-4
-3.13472E-4
8.66565E-4
4.01471E-4
4.83143E-4
-7.58721E-4
4.94271E-5
-2.88831E-4
1.91805E-4
8.15056E-4
1.03345E-4
0.0013
5.69325E-5
0.00117
2.98795E-4
3.27897E-4
0.00164
1.56623E-4
1.40445E-4
2.63818E-4
3.60547E-4
9.18286E-4
6.63477E-4
0.00105
9.09328E-5
6.18041E-4
8.19568E-4
-3.54297E-4
2.58005E-4
-1.87213E-4
8.11167E-5
7.9919E-4
8.55881E-5
0.00128
9.97918E-5
5.29106E-4
2.15689E-4
9.56982E-4
0.00104
6.68504E-4
5.55982E-5
1.60033E-4
1.42722E-4
9.40299E-5
0.00111
5.67447E-4
5.80809E-4
2.69392E-4
2.7088E-4
4.92233E-4
2.5924E-4
6.61899E-4
3.96605E-4
0.00108
3.27116E-4
1.5876E-4
-2.46412E-4
7.08845E-4
1.42471E-4
-1.83714E-4
0.00107
4.13183E-4
6.35312E-4
6.83643E-4
-8.59772E-5
7.68037E-4
1.08531E-4
0.00111
0.00186
-7.12753E-4
8.32366E-4
6.67041E-4
1.84354E-4
9.49219E-4
0.00168
7.89885E-5
5.19512E-4
-7.78076E-5
9.47299E-4
8.49453E-5
1.06536E-4
1.39596E-4
-1.32898E-4
-3.00577E-4
0.00161
0.00119
7.42802E-4
0.00115
-3.30795E-4
2.08809E-4
0.00119
1.52991E-4
-1.26251E-4
8.31654E-4
6.545E-4
1.69953E-4
-4.0779E-4
3.5166E-4
-2.84768E-5
5.77001E-4
-4.20183E-5
3.12789E-5
5.85627E-4
4.30768E-5
4.12816E-4
-5.83132E-5
4.51255E-4
5.00553E-4
3.72495E-4
3.07279E-4
8.02396E-4
-2.85487E-4
-6.69182E-4
8.1117E-4
-3.00256E-4
3.69941E-4
7.73928E-4
4.27014E-4
1.5924E-4
7.1275E-4
-2.61097E-4
-0.00105
-7.15887E-5
2.96755E-4
4.25291E-4
0.00103
8.53234E-4
6.64657E-5
0.00119
-2.5412E-4
9.32862E-4
1.90833E-4
-2.5627E-5
6.84447E-4
5.74238E-4
-3.22974E-5
0.00124
9.01629E-4
6.10449E-4
8.36259E-4
1.93304E-4
4.38956E-4
-4.48111E-5
4.41376E-4
7.75866E-4
6.7062E-4
0.00117
-3.81466E-4
4.7617E-4
-3.79958E-5
0.00135
6.01676E-4
-2.01357E-4
6.80733E-4
0.00135
5.1578E-4
0.00104
3.09122E-4
-9.56427E-5
6.58996E-4
-1.36271E-4
3.71909E-4
8.254E-4
2.18792E-4
-2.03484E-5
6.0497E-4
0.00125
8.88406E-5
2.23731E-4
8.6628E-4
2.45557E-4
-5.96088E-4
0.00103
7.47779E-5
0.00136
8.26718E-5
9.66095E-4
3.1457E-4
8.948E-4
4.91072E-4
0.00116
1.68291E-5
9.40956E-4
3.46085E-4
9.4297E-4
0.001
-4.47147E-5
8.7386E-4
0.00121
9.4159E-4
5.56955E-4
4.28105E-4
8.74761E-4
6.16934E-4
2.27646E-4
-4.35988E-4
0.00123
-8.70944E-5
-1.6943E-4
0.00119
4.16696E-6
-1.33926E-4
4.07364E-4
-4.10422E-4
-1.04735E-4
1.69894E-4
8.10312E-4
1.71781E-4
2.29818E-4
0.00179
-6.66313E-5
0.00141
4.11007E-4
4.84808E-4
-7.52028E-4
0.00128
9.33894E-5
0.00109
-1.76984E-4
6.39498E-4
3.93593E-4
-5.48833E-4
5.41851E-4
-6.33121E-4
3.8717E-4
-1.38242E-4
1.36489E-4
5.25739E-4
0.00126
8.54944E-4
2.4653E-4
8.45561E-4
6.34305E-4
2.27586E-4
8.96617E-4
5.56627E-4
5.64952E-4
6.24968E-4
-1.99097E-4
5.05199E-4
5.21732E-4
-9.18599E-5
9.50227E-6
3.00569E-4
2.26475E-4
1.87325E-4
-2.82367E-4
5.47662E-4
-5.58202E-4
5.71501E-4
1.08484E-4
6.68534E-4
5.69052E-4
-1.22563E-4
7.73351E-4
0.00109
6.05141E-4
6.17097E-4
6.80319E-4
3.15431E-4
2.49301E-4
2.21032E-4
0.00144
8.29457E-4
-2.20387E-4
6.75756E-4
8.32349E-4
5.40068E-4
0.00102
5.00549E-4
0.00101
2.5573E-4
0.00111
3.96446E-4
8.5774E-4
7.39492E-4
4.08093E-4
3.93018E-4
9.43408E-4
7.03585E-4
7.94273E-4
9.77773E-4
0.00148
0.00177
0.00167
0.00126
0.00203
6.97549E-4
0.0015
0.00117
0.00184
0.00161
0.002
0.00166
0.00303
0.00249
0.00104
0.00191
0.00196
0.00152
0.00191
0.00344
0.00309
0.0028
0.00352
0.00317
0.00342
0.0035
0.00377
0.00447
0.00358
0.00423
0.00461
0.00464
0.00421
0.00465
0.00531
0.00477
0.00595
0.0065
0.00667
0.00674
0.00641
0.00672
0.00699
0.00773
0.00758
0.00802
0.00849
0.00839
0.00943
0.00983
0.00974
0.01028
0.01054
0.01075
0.01093
0.01122
0.01136
0.01265
0.01226
0.01224
0.01292
0.01293
0.01329
0.01453
0.01496
0.01433
0.01636
0.0156
0.01591
0.01718
0.0167
0.01697
0.01778
0.01884
0.01813
0.01914
0.01936
0.01957
0.02045
0.02128
0.02127
0.02215
0.02222
0.02349
0.02306
0.02352
0.02455
0.02478
0.02513
0.02559
0.02649
0.02631
0.02681
0.02807
0.02901
0.02833
0.02894
0.03036
0.0294
0.03083
0.0316
0.03198
0.03286
0.0334
0.03403
0.0357
0.03528
0.03506
0.03609
0.03781
0.03789
0.03857
0.03877
0.03881
0.04072
0.04108
0.04152
0.04205
0.04313
0.04346
0.04434
0.04496
0.04501
0.04682
0.04681
0.04798
0.04848
0.04946
0.04969
0.05009
0.05162
0.0516
0.05282
0.05363
0.05318
0.05486
0.05625
0.05718
0.05811
0.05763
0.05904
0.05947
0.0607
0.06172
0.06261
0.06324
0.06421
0.06631
0.06529
0.06647
0.06781
0.06919
0.06896
0.07057
0.07141
0.07073
0.07416
0.07405
0.07445
0.07509
0.07633
0.07789
0.07796
0.07979
0.07988
0.08159
0.08267
0.0827
0.08456
0.0847
0.08642
0.08617
0.08822
0.08962
0.09156
0.09161
0.09247
0.09326
0.09328
0.0954
0.09714
0.09838
0.09932
0.10057
0.09937
0.10164
0.10353
0.1041
0.10437
0.10577
0.10836
0.10922
0.10838
0.11096
0.11204
0.11308
0.11474
0.11619
0.11707
0.11795
0.11913
0.12024
0.11996
0.12383
0.1235
0.12592
0.12856
0.12805
0.12954
0.13188
0.13198
0.13489
0.13707
0.1353
0.13685
0.13868
0.14142
0.14354
0.14313
0.14663
0.14736
0.14818
0.14982
0.15208
0.15313
0.15304
0.15231
0.15514
0.15591
0.1608
0.16046
0.16216
0.16333
0.16539
0.16692
0.16739
0.16871
0.1691
0.1728
0.17377
0.1754
0.17549
0.1786
0.17729
0.17982
0.18312
0.18652
0.18579
0.18804
0.19004
0.19082
0.19386
0.19483
0.19535
0.19647
0.19842
0.1979
0.20131
0.20185
0.20443
0.20757
0.20877
0.21198
0.21288
0.21231
0.21778
0.21787
0.21927
0.22208
0.2222
0.22517
0.22399
0.22591
0.22786
0.23178
0.23293
0.23638
0.23698
0.23867
0.24011
0.24231
0.24491
0.2457
0.24816
0.25063
0.25119
0.25219
0.25515
0.25631
0.25852
0.26225
0.26326
0.26346
0.26644
0.2685
0.27044
0.27353
0.27442
0.27411
0.27603
0.27948
0.28126
0.28389
0.28387
0.28805
0.28873
0.28944
0.29464
0.29555
0.29792
0.29997
0.30365
0.30423
0.30665
0.30753
0.30814
0.31176
0.31484
0.31565
0.31779
0.32077
0.32065
0.32298
0.32378
0.3261
0.32915
0.32975
0.33189
0.33853
0.33849
0.3413
0.34113
0.34459
0.34615
0.3461
0.35017
0.35193
0.3549
0.35633
0.35847
0.36223
0.36092
0.36351
0.36921
0.3707
0.37436
0.37248
0.3719
0.37569
0.37963
0.38544
0.38825
0.39182
0.38945
0.39516
0.3927
0.39724
0.39939
0.40136
0.40112
0.40409
0.40876
0.41007
0.41055
0.4116
0.41728
0.41607
0.42162
0.42215
0.42456
0.42377
0.42745
0.42822
0.43379
0.4348
0.43661
0.43737
0.44255
0.44335
0.4463
0.45041
0.45072
0.44949
0.45283
0.45427
0.45712
0.45938
0.46219
0.46548
0.46713
0.47107
0.47287
0.47397
0.47381
0.47816
0.4808
0.48247
0.4875
0.48962
0.4896
0.49342
0.49491
0.5025
0.49833
0.50236
0.50071
0.50559
0.49976
0.50695
0.51452
0.51449
0.519
0.52079
0.52302
0.52565
0.52461
0.52452
0.53366
0.5318
0.53747
0.53634
0.53413
0.53828
0.54236
0.55089
0.55102
0.54813
0.55562
0.55653
0.55829
0.56335
0.56145
0.56328
0.56091
0.57231
0.5748
0.57529
0.57877
0.58531
0.59004
0.59575
0.59716
0.59838
0.5974
0.60404
0.60693
0.61557
0.62225
0.62442
0.62234
0.61276
0.61373
0.61331
0.61342
0.61769
0.61777
0.61799
0.61908
0.6197
0.61473
0.62131
0.62629
0.62756
0.62851
0.62916
0.6323
0.63557
0.6401
0.63998
0.6423
0.64304
0.64918
0.64976
0.65317
0.65326
0.65419
0.65881
0.66782
0.6632
0.66679
0.66816
0.67043
0.67646
0.67254
0.67224
0.67666
0.68606
0.68387
0.68861
0.69308
0.68871
0.68797
0.68579
0.68904
0.69631
0.6983
0.70259
0.70038
0.70418
0.70586
0.71069
0.71687
0.7192
0.713
0.71402
0.71775
0.71804
0.7202
0.72187
0.72172
0.72725
0.72544
0.72737
0.73372
0.73907
0.73907
0.73286
0.73728
0.73811
0.74632
0.74687
0.7474
0.75057
0.74783
0.75366
0.75323
0.74817
0.753
0.75344
0.76047
0.75885
0.76217
0.76601
0.77001
0.77274
0.76962
0.76954
0.7718
0.78257
0.78056
0.77672
0.77986
0.78262
0.78639
0.78846
0.78966
0.79434
0.79347
0.79158
0.79091
0.79344
0.79399
0.80226
0.80436
0.81024
0.80372
0.80145
0.81168
0.81554
0.80861
0.81433
0.82266
0.82485
0.82616
0.82577
0.82234
0.82964
0.83376
0.83217
0.83096
0.83245
0.82965
0.83531
0.83536
0.83671
0.83406
0.8353
0.83751
0.84126
0.84398
0.84485
0.85029
0.85791
0.85081
0.85589
0.85927
0.86141
0.85699
0.85931
0.85705
0.85517
0.86147
0.86255
0.85747
0.85442
0.86001
0.86444
0.87536
0.87158
0.87474
0.87258
0.87394
0.88142
0.88496
0.88281
0.88412
0.88753
0.88997
0.88945
0.89507
0.8982
0.88146
0.89111
0.88703
0.89232
0.8978
0.89815
0.89911
0.90355
0.91075
0.89975
0.90361
0.91078
0.90304
0.90987
0.91172
0.91186
0.91788
0.91197
0.91657
0.9079
0.90833
0.91975
0.91464
0.91959
0.92084
0.92238
0.91654
0.92151
0.92011
0.92007
0.91808
0.91847
0.9153
0.92472
0.92251
0.92855
0.93028
0.92901
0.93896
0.93419
0.93681
0.93532
0.93681
0.94873
0.94223
0.93268
0.93164
0.93912
0.94074
0.94389
0.94628
0.94197
0.94247
0.94737
0.94826
0.9616
0.94937
0.95247
0.95842
0.94909
0.96144
0.95959
0.9593
0.96157
0.96084
0.96079
0.95877
0.95493
0.9462
0.9479
0.96152
0.9611
0.96091
0.95639
0.9561
0.95623
0.96713
0.97407
0.97297
0.97154
0.96906
0.97208
0.96686
0.97508
0.97897
0.98159
0.98711
0.98162
0.98262
0.9772
0.98532
0.98751
0.98404
0.98132
0.97624
0.97808
0.98349
0.98389
0.98228
1.00003
0.99576
0.99417
0.98631
0.99252
0.99585
0.98995
0.98493
0.99112
0.99149
0.99761
0.99719
1
0.99104
0.98994
1.00118
0.98555
0.98947
0.99503
0.98236
0.98843
0.99587
0.99147
0.99968
0.9969
1.00186
1.00262
1.00101
0.99086
0.99952
0.99213
0.98634
0.98913
0.99637
0.99407
1.0006
0.99348
0.99818
1.00034
1.00054
0.99965
0.99799
0.99909
0.98943
0.98091
0.98543
0.99614
1.00465
1.00051
1.00604
1.0008
0.99864
1.00536
1.00277
0.99177
0.98752
0.98471
0.98661
0.99421
0.99519
0.9925
0.98831
0.98113
0.98546
0.99432
0.9903
0.9973
0.99469
0.98713
0.98956
0.9843
0.98929
0.98806
0.9877
0.99123
0.99842
0.99168
0.99698
1.0043
0.99667
0.99174
0.99633
0.99285
0.99615
0.99704
0.98932
0.98838
0.99419
0.99858
0.99148
0.99748
0.99471
0.99657
0.99273
0.98581
0.98047
0.97586
0.97836
0.97239
0.98718
0.9843
0.98949
0.99415
0.98436
0.98089
0.97968
0.98516
0.98544
0.979
0.97258
0.96759
0.97509
0.98065
0.97285
0.98378
0.98087
0.97433
0.97344
0.96745
0.9657
0.96905
0.96495
0.96532
0.96222
0.96469
0.95974
0.96528
0.96426
0.97046
0.96616
0.96381
0.96719
0.9676
0.97739
0.97087
0.96603
0.96513
0.96321
0.96904
0.96561
0.95978
0.96222
0.95853
0.95854
0.9552
0.94694
0.94817
0.94634
0.95031
0.95925
0.95094
0.94429
0.94912
0.95227
0.95498
0.94614
0.94024
0.94173
0.93699
0.95076
0.95534
0.95087
0.94401
0.93683
0.93433
0.9434
0.94466
0.93575
0.93075
0.93588
0.94488
0.93974
0.93822
0.93671
0.93566
0.92513
0.9211
0.91889
0.9201
0.9247
0.92906
0.92759
0.92846
0.93018
0.92295
0.92381
0.91936
0.91277
0.90746
0.91213
0.90592
0.90741
0.91599
0.91035
0.91754
0.91199
0.91856
0.91599
0.91039
0.9047
0.91165
0.9139
0.91001
0.90093
0.89973
0.89694
0.89831
0.89689
0.90037
0.90058
0.89144
0.9016
0.90131
0.89801
0.90298
0.90214
0.90205
0.89581
0.89292
0.8854
0.88125
0.88212
0.87095
0.87951
0.88326
0.87907
0.89386
0.88536
0.8817
0.87008
0.87468
0.87845
0.87749
0.86683
0.86199
0.85295
0.85869
0.86464
0.87173
0.87404
0.87252
0.87131
0.87765
0.8671
0.86628
0.86754
0.86161
0.85788
0.8548
0.85349
0.85204
0.84308
0.8302
0.83921
0.84055
0.84454
0.84691
0.83972
0.84571
0.84619
0.85573
0.84901
0.84196
0.83859
0.83175
0.83503
0.83507
0.83648
0.84252
0.84066
0.83759
0.83862
0.84419
0.82495
0.82189
0.8218
0.8135
0.81803
0.82488
0.81918
0.81244
0.81297
0.79711
0.79976
0.8052
0.79727
0.79398
0.80229
0.7956
0.7951
0.78839
0.79156
0.79359
0.79207
0.78273
0.78669
0.78059
0.78929
0.78122
0.77385
0.78276
0.77886
0.76646
0.77072
0.76322
0.76064
0.76259
0.76835
0.77596
0.77094
0.7637
0.76987
0.76705
0.76523
0.75998
0.76084
0.76204
0.75211
0.74776
0.73959
0.74246
0.73439
0.73978
0.74317
0.7401
0.73773
0.73614
0.72909
0.72541
0.72239
0.72947
0.72786
0.72275
0.72464
0.72353
0.72274
0.72431
0.72253
0.71479
0.71449
0.70843
0.71255
0.7032
0.70071
0.6934
0.70091
0.70398
0.70224
0.69995
0.68955
0.69872
0.70781
0.70693
0.6915
0.6885
0.68575
0.68516
0.68413
0.68437
0.68717
0.687
0.68318
0.67737
0.67882
0.67378
0.67118
0.66673
0.6689
0.66354
0.6676
0.67056
0.66244
0.66848
0.66736
0.66215
0.65961
0.65811
0.65247
0.65377
0.65246
0.64708
0.63994
0.64219
0.64211
0.64202
0.64568
0.64093
0.64119
0.64224
0.64597
0.63966
0.64301
0.63368
0.62732
0.62571
0.62299
0.6251
0.62869
0.62204
0.61622
0.62036
0.62285
0.62324
0.61853
0.6137
0.61909
0.62541
0.61627
0.61644
0.61702
0.61301
0.60255
0.6068
0.60889
0.60261
0.59629
0.59805
0.60016
0.59957
0.59443
0.58654
0.591
0.58758
0.58831
0.58971
0.5897
0.58849
0.58605
0.58321
0.58254
0.57881
0.57919
0.57752
0.58047
0.58466
0.58206
0.57953
0.57264
0.57231
0.57109
0.57377
0.56545
0.56907
0.56054
0.56314
0.56273
0.55632
0.5528
0.55027
0.54955
0.54831
0.54731
0.54529
0.54777
0.54481
0.54216
0.54396
0.544
0.5404
0.53482
0.54136
0.53868
0.53881
0.53454
0.53741
0.52892
0.52653
0.52271
0.52345
0.52574
0.52531
0.51988
0.51791
0.52185
0.52074
0.51817
0.51501
0.51928
0.51535
0.5143
0.51385
0.51144
0.50792
0.50393
0.5007
0.50273
0.50348
0.50237
0.49889
0.49664
0.49986
0.50337
0.49956
0.49846
0.49444
0.48973
0.48993
0.48717
0.48565
0.48698
0.48789
0.48331
0.47979
0.48104
0.48503
0.48271
0.47692
0.47725
0.47519
0.47617
0.47313
0.47367
0.47084
0.46981
0.46521
0.46615
0.46169
0.46056
0.4632
0.46586
0.45998
0.4562
0.45709
0.45767
0.4588
0.4619
0.45818
0.45312
0.45182
0.4493
0.44752
0.441
0.44332
0.44065
0.44489
0.44158
0.4304
0.43375
0.43603
0.43225
0.43107
0.43045
0.42647
0.4298
0.4346
0.4317
0.43298
0.42542
0.42031
0.42267
0.42346
0.42396
0.42164
0.41919
0.41513
0.41349
0.41567
0.41921
0.41821
0.41359
0.41144
0.40763
0.40692
0.40749
0.40883
0.40814
0.40052
0.40058
0.40725
0.40284
0.39933
0.39764
0.39746
0.39462
0.39368
0.39024
0.39105
0.3896
0.38641
0.38522
0.38097
0.38463
0.38611
0.38422
0.39126
0.38153
0.3826
0.37928
0.37954
0.37666
0.37497
0.37708
0.37317
0.37226
0.36994
0.36905
0.37194
0.36946
0.37071
0.37218
0.37121
0.36882
0.36441
0.36553
0.36264
0.36003
0.36076
0.36098
0.35425
0.35736
0.35738
0.35438
0.35432
0.35111
0.34902
0.35143
0.35056
0.34411
0.34289
0.34338
0.34072
0.34118
0.34014
0.33652
0.342
0.34454
0.34114
0.33969
0.33609
0.33752
0.33766
0.33543
0.33416
0.33294
0.32908
0.33225
0.33362
0.33082
0.33149
0.33059
0.32747
0.3305
0.32517
0.32374
0.3222
0.31898
0.32278
0.32281
0.32081
0.31519
0.31137
0.31202
0.31336
0.31211
0.30931
0.30925
0.30405
0.30674
0.30597
0.30596
0.30273
0.30281
0.29827
0.29858
0.30084
0.29774
0.29802
0.2975
0.29687
0.29579
0.29664
0.29464
0.29356
0.29121
0.28691
0.28437
0.28699
0.28421
0.28314
0.28456
0.28772
0.28202
0.2776
0.27558
0.27822
0.28167
0.27657
0.27469
0.27294
0.27398
0.27742
0.27732
0.27647
0.27156
0.27059
0.26968
0.26996
0.26686
0.26703
0.26864
0.27074
0.27016
0.26862
0.26839
0.26516
0.26457
0.26483
0.26413
0.26505
0.2566
0.25773
0.26003
0.25567
0.25414
0.25635
0.25381
0.2513
0.25255
0.2516
0.25265
0.25316
0.2485
0.25
0.24772
0.24772
0.24843
0.25178
0.25021
0.24792
0.24346
0.24513
0.24293
0.23781
0.23546
0.23574
0.23814
0.23833
0.2355
0.23479
0.23165
0.23217
0.23052
0.23033
0.23331
0.2331
0.23202
0.23034
0.22855
0.22572
0.23012
0.22604
0.22441
0.22415
0.22512
0.22374
0.22366
0.22036
0.21853
0.22015
0.22059
0.22195
0.21921
0.21681
0.21615
0.21747
0.21158
0.2149
0.21244
0.2113
0.2115
0.20955
0.20908
0.20801
0.20523
0.20485
0.20372
0.20702
0.20869
0.2071
0.20282
0.20311
0.2021
0.20146
0.19905
0.20256
0.1986
0.19746
0.19684
0.19774
0.19596
0.19408
0.19357
0.1934
0.19369
0.1951
0.19305
0.19277
0.19164
0.19104
0.18982
0.18981
0.18712
0.19106
0.19055
0.18755
0.18689
0.18378
0.18131
0.18395
0.18319
0.18262
0.18519
0.1776
0.17991
0.17914
0.17585
0.17782
0.17325
0.17789
0.17505
0.17157
0.17176
0.17055
0.17015
0.17044
0.16723
0.17366
0.16976
0.16942
0.16726
0.1682
0.1697
0.16501
0.16721
0.16352
0.16526
0.16323
0.16107
0.1603
0.15922
0.15881
0.15675
0.15768
0.15799
0.15629
0.15562
0.15958
0.1567
0.15527
0.15203
0.15412
0.15272
0.14967
0.15416
0.15296
0.1523
0.15187
0.15116
0.14833
0.14629
0.14501
0.1471
0.14505
0.14179
0.14436
0.14119
0.14353
0.1401
0.13887
0.13924
0.14095
0.13982
0.13693
0.13818
0.13904
0.13701
0.13686
0.13774
0.13707
0.13595
0.13324
0.13313
0.13434
0.13471
0.13603
0.13221
0.13182
0.1307
0.12783
0.12956
0.12823
0.12858
0.12717
0.12662
0.12759
0.12598
0.12531
0.12611
0.12401
0.12315
0.12549
0.12563
0.12314
0.12393
0.12166
0.12382
0.11991
0.11772
0.12047
0.11926
0.12029
0.12012
0.11612
0.11504
0.11558
0.11336
0.11385
0.1122
0.11415
0.11494
0.1136
0.11283
0.11449
0.1135
0.11385
0.11243
0.1105
0.11172
0.10924
0.11103
0.10699
0.10853
0.10688
0.10685
0.1097
0.10562
0.10542
0.10514
0.10498
0.10671
0.10495
0.10382
0.10536
0.10126
0.10229
0.10222
0.10007
0.10006
0.10081
0.09845
0.10068
0.09876
0.10303
0.09997
0.09779
0.0989
0.09833
0.09819
0.09656
0.09704
0.09539
0.09591
0.09437
0.0948
0.09686
0.09363
0.09321
0.09208
0.09046
0.09125
0.09199
0.0897
0.09071
0.09194
0.09178
0.09143
0.09015
0.08491
0.08829
0.08499
0.08617
0.08917
0.08717
0.08851
0.08888
0.08452
0.08646
0.0841
0.08335
0.08391
0.08424
0.08502
0.0825
0.08167
0.08601
0.08135
0.08181
0.0815
0.07953
0.08165
0.08098
0.08002
0.07913
0.07873
0.0794
0.08095
0.07886
0.0781
0.07944
0.07547
0.0748
0.07332
0.07568
0.07509
0.0761
0.07288
0.07215
0.07567
0.07455
0.07282
0.0736
0.07345
0.07285
0.07258
0.07133
0.07305
0.07256
0.07303
0.06999
0.06953
0.06979
0.0701
0.06863
0.06861
0.06834
0.06474
0.06714
0.06544
0.06875
0.06797
0.06614
0.06603
0.06423
0.06394
0.06591
0.06791
0.06683
0.06608
0.06528
0.06462
0.06346
0.06675
0.06709
0.06476
0.06277
0.06263
0.06459
0.06526
0.06272
0.06265
0.06315
0.0596
0.06151
0.05945
0.06152
0.06057
0.06151
0.06229
0.05836
0.05873
0.05555
0.05674
0.05571
0.05857
0.05829
0.05833
0.05631
0.05535
0.05856
0.05885
0.05499
0.05412
0.05675
0.05272
0.05311
0.05267
0.05457
0.05573
0.04884
0.05256
0.05467
0.05286
0.05471
0.05256
0.05271
0.05027
0.05151
0.05366
0.04995
0.05152
0.05134
0.05253
0.04912
0.04976
0.04929
0.0493
0.0499
0.04786
0.04856
0.05095
0.04852
0.04649
0.04798
0.0496
0.04636
0.04912
0.04638
0.04683
0.04696
0.04756
0.04529
0.04702
0.04585
0.04539
0.04553
0.04355
0.04593
0.04481
0.0436
0.04404
0.04507
0.04184
0.04491
0.04639
0.0407
0.0412
0.04261
0.04281
0.04069
0.04234
0.04373
0.04604
0.03975
0.04088
0.0424
0.0398
0.04192
0.04141
0.04064
0.04181
0.03939
0.04276
0.03995
0.04019
0.03685
0.03758
0.03971
0.03887
0.03615
0.03779
0.04019
0.03795
0.03945
0.03931
0.03478
0.0362
0.03619
0.03914
0.0371
0.0368
0.03585
0.03484
0.03635
0.03692
0.03587
0.03727
0.03521
0.03467
0.03502
0.03531
0.036
0.03537
0.03396
0.03257
0.0344
0.03262
0.0319
0.03313
0.03469
0.0322
0.03523
0.03287
0.0317
0.0343
0.03143
0.03431
0.03318
0.03159
0.03298
0.03271
0.03053
0.03027
0.02945
0.03376
0.02968
0.03196
0.02898
0.03132
0.029
0.03197
0.02893
0.03055
0.02823
0.0303
0.02818
0.02847
0.03024
0.03141
0.02918
0.03152
0.03049
0.03057
0.02929
0.02788
0.02948
0.02739
0.02813
0.02815
0.02686
0.02927
0.02585
0.0264
0.02712
0.02213
0.02423
0.02679
0.02408
0.02532
0.03083
0.02832
0.02507
0.02498
0.02458
0.02434
0.02454
0.02517
0.02582
0.025
0.02623
0.02499
0.02739
0.02486
0.02375
0.02355
0.02423
0.02404
0.02496
0.02268
0.02421
0.02383
0.02154
0.02207
0.02491
0.02554
0.02127
0.02123
0.0207
0.02252
0.0221
0.022
0.02386
0.01968
0.02136
0.02233
0.02028
0.0224
0.02033
0.02194
0.01742
0.01962
0.02166
0.02331
0.02148
0.0194
0.01923
0.02083
0.01922
0.01944
0.0181
0.0173
0.01971
0.01909
0.01933
0.02042
0.01804
0.01673
0.01798
0.01841
0.01866
0.019
0.01846
0.01784
0.01948
0.0198
0.01687
0.01697
0.01617
0.01902
0.0162
0.01913
0.01803
0.01767
0.01591
0.01542
0.01815
0.01839
0.01894
0.01758
0.01765
0.01835
0.01576
0.01512
0.01779
0.01465
0.01499
0.01602
0.01324
0.01363
0.01901
0.01472
0.01668
0.01543
0.01491
0.01649
0.01594
0.01523
0.01419
0.01491
0.01541
0.01416
0.01649
0.01446
0.01423
0.01747
0.01435
0.01606
0.01598
0.01358
0.01483
0.01193
0.01355
0.01606
0.01114
0.01568
0.01533
0.0133
0.01336
0.01308
0.01335
0.01876
0.01203
0.01329
0.01279
0.01245
0.01472
0.01503
0.01363
0.01489
0.01093
0.01441
0.01139
0.01416
0.01017
0.01274
0.01459
0.01189
0.01319
0.01372
0.01105
0.0134
0.0113
0.01294
0.01292
0.01318
0.01286
0.01018
0.011
0.00875
0.01286
0.01154
0.0083
0.01309
0.01242
0.01234
0.0111
0.00994
0.01181
0.00968
0.01336
0.009
0.01102
0.01278
0.01242
0.00954
0.01196
0.0119
0.01154
0.00858
0.01459
0.01012
0.01126
0.01328
0.0117
0.01011
0.01003
0.00943
0.0101
0.00906
0.00722
0.00913
0.01003
0.00997
0.01069
0.01115
0.01472
0.01283
0.0088
0.01001
0.01439
0.01075
0.01275
0.01157
0.01083
0.01369
0.01112
0.00692
0.00982
0.01045
0.00976
0.00715
0.01062
0.00933
0.00781
0.00767
0.00878
0.0081
0.00963
0.00925
0.00649
0.00943
0.01102
0.00968
0.00542
0.00902
0.00498
0.00792
0.0093
0.01016
0.00924
0.00627
0.00777
0.00629
0.00784
0.00796
0.00831
0.0099
0.0115
0.00882
0.00886
0.0083
0.01007
0.00878
0.00687
0.00958
0.00341
0.00952
0.00504
0.00674
0.00768
0.0114
0.00983
0.0087
0.01107
0.0074
0.00935
0.00796
0.00877
0.00952
0.00684
0.00637
0.01033
0.00763
0.011
0.01055
0.00756
0.00683
0.00852
0.00417
0.00649
0.0074
0.00663
0.01043
0.00735
0.00934
0.00778
0.00967
0.00507
0.00489
0.00512
0.00676
0.00782
0.00767
0.00728
0.00882
0.00612
0.00618
0.00892
0.00645
0.00925
0.00631
0.00544
0.01015
0.00977
0.00487
0.00477
0.00774
0.00817
0.00837
0.00678
0.00662
0.00583
0.00386
0.0063
0.00667
0.00657
0.00859
0.00495
0.0067
0.004
0.00427
0.00583
0.00786
0.00415
0.00892
0.00729
0.00777
0.00159
0.00551
0.00516
0.00541
0.00231
0.0064
0.0052
0.00609
0.00652
-2.17463E-4
0.00579
0.00448
0.00426
0.00251
0.00535
0.0051
0.00341
0.0027
0.00536
0.00877
0.00285
0.00744
0.00945
0.00732
0.00495
0.00203
0.00229
0.0062
0.00744
0.00403
0.00257
0.00813
0.00393
0.00514
0.00891
0.00528
0.00836
0.00909
0.00581
0.00736
0.0022
0.00586
-2.38101E-4
0.00494
0.00455
0.00171
0.0064
0.00341
0.00317
-2.059E-4
0.00716
0.00383
0.00362
0.00293
0.00314
0.00403
0.00376
0.00452
0.00378
0.00773
0.00752
0.00267
0.00565
0.00284
0.00545
0.0044
7.89739E-4
0.00562
0.00411
0.00376
0.00424
0.00589
0.00504
0.00745
0.00508
0.0049
0.00416
];

S0ori=[0.00155
0.00119
9.01432E-4
0.00126
-7.94373E-4
0.00121
7.4506E-4
3.10727E-4
-1.70757E-5
9.08329E-4
2.79971E-4
0.00174
5.05901E-4
8.18762E-4
6.27224E-4
-6.63492E-4
-2.06786E-4
0.00198
0.00156
-7.00688E-4
0.00189
0.00118
9.73051E-4
0.00157
-1.46691E-4
0.00154
-5.89001E-4
0.00137
0.00118
4.04709E-4
8.67223E-5
-5.29099E-4
9.92384E-4
-0.00107
0.00188
-4.43929E-5
8.59538E-4
0.00141
9.4476E-4
-4.7563E-4
8.551E-4
1.81374E-4
4.79907E-5
9.82308E-4
9.48349E-4
-2.9148E-4
0.00143
5.33392E-4
0.00103
9.83422E-4
8.56679E-4
3.22506E-4
0.00139
3.29565E-4
5.2132E-4
5.65539E-4
9.32045E-4
-4.02026E-4
0.00111
5.14537E-4
6.19044E-4
-9.71877E-4
6.32961E-5
-3.69777E-4
2.4546E-4
0.00104
1.32183E-4
0.00166
7.27804E-5
0.0015
3.81763E-4
4.18834E-4
0.0021
1.99926E-4
1.79227E-4
3.36578E-4
4.59861E-4
0.00117
8.45781E-4
0.00133
1.15841E-4
7.87123E-4
0.00104
-4.50984E-4
3.28326E-4
-2.38175E-4
1.0317E-4
0.00102
1.08785E-4
0.00163
1.26771E-4
6.71971E-4
2.73854E-4
0.00121
0.00131
8.48103E-4
7.05069E-5
2.02892E-4
1.80897E-4
1.19149E-4
0.00141
7.18652E-4
7.3538E-4
3.40994E-4
3.42786E-4
6.22651E-4
3.27839E-4
8.36826E-4
5.01287E-4
0.00136
4.13238E-4
2.00505E-4
-3.11121E-4
8.94636E-4
1.79766E-4
-2.31743E-4
0.00135
5.20927E-4
8.00769E-4
8.61459E-4
-1.08311E-4
9.67164E-4
1.36633E-4
0.0014
0.00234
-8.96599E-4
0.00105
8.38652E-4
2.31692E-4
0.00119
0.0021
9.91923E-5
6.52221E-4
-9.76578E-5
0.00119
1.0656E-4
1.3361E-4
1.75025E-4
-1.66561E-4
-3.76615E-4
0.00202
0.00149
9.29977E-4
0.00144
-4.13933E-4
2.61186E-4
0.00149
1.91266E-4
-1.57794E-4
0.00104
8.17597E-4
2.12248E-4
-5.09142E-4
4.38947E-4
-3.55311E-5
7.19748E-4
-5.23997E-5
3.89968E-5
7.29935E-4
5.36775E-5
5.14272E-4
-7.26255E-5
5.61789E-4
6.23001E-4
4.63495E-4
3.82248E-4
9.979E-4
-3.54954E-4
-8.31793E-4
0.00101
-3.73023E-4
4.59477E-4
9.60865E-4
5.30017E-4
1.976E-4
8.84218E-4
-3.23826E-4
-0.0013
-8.87417E-5
3.67762E-4
5.26849E-4
0.00128
0.00106
8.22733E-5
0.00147
-3.14395E-4
0.00115
2.35974E-4
-3.16807E-5
8.45801E-4
7.09427E-4
-3.98906E-5
0.00153
0.00111
7.53382E-4
0.00103
2.38441E-4
5.41314E-4
-5.52389E-5
5.43946E-4
9.5592E-4
8.26036E-4
0.00144
-4.69628E-4
5.86068E-4
-4.6753E-5
0.00166
7.39871E-4
-2.47541E-4
8.36654E-4
0.00166
6.33592E-4
0.00127
3.79534E-4
-1.17398E-4
8.08686E-4
-1.6716E-4
4.56094E-4
0.00101
2.6818E-4
-2.49351E-5
7.41147E-4
0.00154
1.08782E-4
2.73881E-4
0.00106
3.00406E-4
-7.29047E-4
0.00126
9.14104E-5
0.00166
1.01008E-4
0.00118
3.84144E-4
0.00109
5.99299E-4
0.00142
2.05275E-5
0.00115
4.21926E-4
0.00115
0.00122
-5.44716E-5
0.00106
0.00147
0.00115
6.77704E-4
5.20786E-4
0.00106
7.50112E-4
2.76718E-4
-5.29835E-4
0.0015
-1.05788E-4
-2.05716E-4
0.00144
5.0568E-6
-1.62485E-4
4.94104E-4
-4.97687E-4
-1.26971E-4
2.05913E-4
9.81852E-4
2.08067E-4
2.78293E-4
0.00216
-8.06446E-5
0.0017
4.97194E-4
5.86322E-4
-9.09264E-4
0.00154
1.12858E-4
0.00132
-2.13744E-4
7.72127E-4
4.75102E-4
-6.62322E-4
6.53732E-4
-7.63654E-4
4.66876E-4
-1.66659E-4
1.64504E-4
6.3349E-4
0.00152
0.00103
2.96795E-4
0.00102
7.63245E-4
2.73781E-4
0.00108
6.6927E-4
6.79108E-4
7.51062E-4
-2.39177E-4
6.06745E-4
6.26444E-4
-1.10268E-4
1.14036E-5
3.60621E-4
2.71655E-4
2.24638E-4
-3.38526E-4
6.5642E-4
-6.68884E-4
6.84562E-4
1.29912E-4
8.00388E-4
6.81115E-4
-1.46663E-4
9.25182E-4
0.0013
7.23583E-4
7.37694E-4
8.13068E-4
3.76839E-4
2.9776E-4
2.63929E-4
0.00172
9.8994E-4
-2.62962E-4
8.06097E-4
9.92645E-4
6.43915E-4
0.00121
5.96424E-4
0.00121
3.04559E-4
0.00133
4.71908E-4
0.00102
8.79813E-4
4.85409E-4
4.67361E-4
0.00112
8.36257E-4
9.43692E-4
0.00116
0.00175
0.0021
0.00198
0.0015
0.00241
8.27328E-4
0.00178
0.00139
0.00218
0.00191
0.00237
0.00196
0.00359
0.00294
0.00123
0.00226
0.00232
0.0018
0.00226
0.00406
0.00365
0.0033
0.00416
0.00375
0.00403
0.00413
0.00444
0.00528
0.00423
0.00499
0.00544
0.00547
0.00495
0.00547
0.00625
0.00561
0.007
0.00765
0.00785
0.00793
0.00753
0.0079
0.00821
0.00907
0.0089
0.00942
0.00996
0.00984
0.01106
0.01153
0.01142
0.01205
0.01235
0.01259
0.0128
0.01313
0.01329
0.01481
0.01434
0.01432
0.0151
0.01511
0.01553
0.01698
0.01748
0.01674
0.0191
0.01821
0.01856
0.02004
0.01947
0.01979
0.02073
0.02196
0.02112
0.0223
0.02255
0.02279
0.02381
0.02476
0.02474
0.02576
0.02584
0.0273
0.0268
0.02733
0.02852
0.02878
0.02917
0.02971
0.03074
0.03053
0.0311
0.03255
0.03363
0.03284
0.03353
0.03517
0.03404
0.03569
0.03658
0.03701
0.03802
0.03863
0.03935
0.04127
0.04078
0.04051
0.04169
0.04367
0.04374
0.04452
0.04474
0.04478
0.04697
0.04737
0.04787
0.04847
0.0497
0.05007
0.05106
0.05176
0.05181
0.05388
0.05386
0.05518
0.05575
0.05687
0.05711
0.05757
0.0593
0.05927
0.06065
0.06157
0.06104
0.06295
0.06452
0.06557
0.06663
0.06606
0.06766
0.06814
0.06953
0.07068
0.07168
0.07239
0.07347
0.07586
0.07467
0.076
0.07752
0.07907
0.07879
0.08061
0.08155
0.08076
0.08465
0.0845
0.08494
0.08565
0.08704
0.0888
0.08885
0.09092
0.091
0.09292
0.09413
0.09413
0.09624
0.09636
0.0983
0.09799
0.1003
0.10186
0.10405
0.10408
0.10503
0.1059
0.10589
0.10827
0.11022
0.1116
0.11264
0.11403
0.11264
0.11518
0.1173
0.11792
0.1182
0.11976
0.12266
0.1236
0.12263
0.12551
0.1267
0.12783
0.12967
0.13129
0.13225
0.13321
0.13451
0.13574
0.13538
0.13972
0.13932
0.14201
0.14495
0.14434
0.14598
0.14858
0.14865
0.15189
0.15431
0.15229
0.15399
0.15601
0.15905
0.1614
0.16091
0.1648
0.16558
0.16647
0.16827
0.17076
0.1719
0.17176
0.1709
0.17401
0.17484
0.18028
0.17985
0.18172
0.18298
0.18525
0.18692
0.18741
0.18884
0.18923
0.19333
0.19436
0.19614
0.19619
0.19963
0.19811
0.20087
0.20451
0.20826
0.20739
0.20985
0.21203
0.21286
0.2162
0.21723
0.21776
0.21896
0.22108
0.22044
0.2242
0.22474
0.22756
0.23101
0.23228
0.23581
0.23675
0.23603
0.24206
0.2421
0.2436
0.24666
0.24673
0.24998
0.24861
0.25068
0.25278
0.25708
0.25829
0.26205
0.26265
0.26447
0.266
0.26838
0.27119
0.27198
0.27464
0.2773
0.27786
0.2789
0.28211
0.28332
0.2857
0.28976
0.2908
0.29096
0.29418
0.29639
0.29846
0.3018
0.30271
0.3023
0.30435
0.30807
0.30997
0.3128
0.3127
0.31723
0.31787
0.31858
0.32423
0.32515
0.32768
0.32987
0.33384
0.3344
0.33697
0.33786
0.33846
0.34236
0.34566
0.34646
0.34874
0.35193
0.35172
0.35419
0.35498
0.35745
0.36067
0.36123
0.3635
0.37068
0.37056
0.37354
0.37327
0.37697
0.37859
0.37845
0.38282
0.38465
0.3878
0.38928
0.39153
0.39554
0.39402
0.39676
0.40289
0.40442
0.40833
0.40618
0.40545
0.40949
0.4137
0.41987
0.42284
0.42663
0.42396
0.43008
0.4273
0.43214
0.43438
0.43642
0.43607
0.43919
0.44417
0.44548
0.44591
0.44694
0.45301
0.45159
0.45751
0.45798
0.46049
0.45953
0.46342
0.46415
0.47007
0.47107
0.47292
0.47358
0.47907
0.47983
0.48291
0.48725
0.48747
0.48604
0.48953
0.49098
0.49396
0.49629
0.49921
0.50264
0.50431
0.50844
0.51028
0.51135
0.51106
0.51564
0.51837
0.52005
0.52535
0.52751
0.52737
0.53137
0.53285
0.5409
0.53629
0.54051
0.53861
0.54374
0.53735
0.54489
0.5529
0.55275
0.55747
0.55926
0.56153
0.56423
0.56299
0.56277
0.57243
0.57032
0.57627
0.57493
0.57243
0.57675
0.58099
0.58999
0.59
0.58678
0.59466
0.59549
0.59724
0.60253
0.60036
0.60217
0.59951
0.61156
0.61408
0.61446
0.61804
0.62489
0.62973
0.63568
0.63704
0.63819
0.63701
0.64395
0.64689
0.65594
0.66291
0.66508
0.66272
0.65236
0.65325
0.65266
0.65264
0.65702
0.65696
0.65706
0.65806
0.65857
0.65314
0.65999
0.66513
0.66633
0.6672
0.66773
0.67092
0.67424
0.67889
0.67862
0.68092
0.68155
0.68791
0.68838
0.69183
0.69177
0.6926
0.69734
0.70672
0.70167
0.70532
0.70661
0.70885
0.71507
0.71068
0.71029
0.7148
0.72457
0.72202
0.72687
0.73142
0.72665
0.7257
0.72324
0.72652
0.73402
0.73595
0.74031
0.73782
0.74166
0.74326
0.74818
0.75452
0.75681
0.75012
0.75103
0.75478
0.75492
0.75702
0.75861
0.75829
0.76393
0.76186
0.76372
0.77021
0.77566
0.77549
0.7688
0.77327
0.77397
0.7824
0.78281
0.78319
0.78634
0.7833
0.78923
0.78861
0.78314
0.78802
0.78831
0.79548
0.79362
0.79692
0.80075
0.80476
0.80744
0.804
0.80374
0.80592
0.81699
0.81471
0.81053
0.81363
0.81633
0.82008
0.82205
0.82313
0.82783
0.82674
0.8245
0.82363
0.82607
0.82646
0.83489
0.8369
0.84283
0.83586
0.83333
0.84378
0.8476
0.84021
0.84598
0.85445
0.85653
0.8577
0.85711
0.85336
0.86075
0.86484
0.863
0.86156
0.86291
0.85983
0.86551
0.86537
0.86658
0.86365
0.86474
0.86684
0.87054
0.87316
0.87387
0.87931
0.88699
0.87947
0.88452
0.88782
0.88984
0.88509
0.88728
0.88476
0.88262
0.88894
0.88986
0.88443
0.88109
0.88666
0.89103
0.90209
0.898
0.90107
0.89865
0.89985
0.90737
0.91081
0.9084
0.90955
0.91286
0.91517
0.91444
0.92002
0.92303
0.90564
0.91536
0.91097
0.91621
0.92164
0.92179
0.92258
0.92694
0.93412
0.92264
0.9264
0.93355
0.92542
0.93222
0.93391
0.93385
0.93982
0.93356
0.93807
0.929
0.92924
0.94072
0.93529
0.94015
0.94123
0.9426
0.93643
0.9413
0.93968
0.93943
0.9372
0.93739
0.93396
0.94337
0.94092
0.94687
0.94843
0.94694
0.95688
0.95181
0.95427
0.95256
0.95387
0.9658
0.95898
0.94905
0.94779
0.9552
0.95664
0.95964
0.96187
0.95728
0.95759
0.96236
0.96306
0.9764
0.96377
0.96672
0.97255
0.96287
0.9752
0.97311
0.97261
0.9747
0.97376
0.9736
0.97125
0.96725
0.95811
0.95962
0.97331
0.97257
0.97228
0.9675
0.96699
0.96693
0.97774
0.98454
0.98322
0.98157
0.97886
0.9817
0.97622
0.98432
0.98803
0.99047
0.99583
0.99008
0.99088
0.9852
0.99318
0.99517
0.99146
0.98852
0.98319
0.98484
0.99008
0.99026
0.98844
1.00608
1.00158
0.99977
0.99166
0.99769
1.00082
0.99469
0.98944
0.99544
0.9956
1.00154
1.0009
1.00351
0.99431
0.993
1.00407
0.98839
0.99253
0.99832
0.98581
0.99212
0.99979
0.99559
1.00404
1.00145
1.00665
1.00762
1.00623
0.99623
1.00515
0.99793
0.99231
0.99534
1.00283
1.00072
1.00751
1.00044
1.00539
1.00789
1.0082
1.00751
1.00605
1.00738
0.99785
0.98947
0.99423
1.00526
1.01405
1.01009
1.01589
1.01081
1.00884
1.01585
1.01345
1.00254
0.99846
0.99583
0.99796
1.00586
1.00707
1.00456
1.00053
0.99347
0.99807
1.00726
1.0034
1.0107
1.00828
1.00082
1.0035
0.99838
1.00365
1.00262
1.00247
1.00627
1.01378
1.00716
1.01275
1.02041
1.01287
1.00808
1.01295
1.00953
1.01309
1.01422
1.00658
1.00584
1.01197
1.01665
1.00964
1.01597
1.01336
1.01548
1.01178
1.00494
0.99971
0.99522
0.99799
0.99211
1.00742
1.0047
1.01021
1.01518
1.0054
1.00207
1.00105
1.00686
1.00737
1.001
0.99464
0.98976
0.99765
1.00355
0.99567
1.00707
1.00431
0.99783
0.99713
0.99121
0.98963
0.99327
0.98929
0.98988
0.98691
0.98966
0.98479
0.9907
0.98986
0.99644
0.99224
0.99004
0.99373
0.99436
1.00463
0.99815
0.99339
0.99267
0.99092
0.99712
0.99382
0.98803
0.99075
0.98717
0.98729
0.98417
0.97587
0.97724
0.97556
0.97987
0.98929
0.98094
0.97429
0.97949
0.98295
0.98596
0.97705
0.97117
0.97292
0.96823
0.98267
0.98762
0.98321
0.97633
0.96912
0.96674
0.97634
0.97785
0.96884
0.96388
0.96929
0.97882
0.97371
0.97234
0.971
0.97012
0.95941
0.95543
0.95335
0.95482
0.95979
0.96454
0.96322
0.96433
0.96632
0.95903
0.96013
0.95572
0.94907
0.94375
0.94882
0.94256
0.94432
0.95346
0.94779
0.95549
0.94982
0.95687
0.9544
0.94877
0.94304
0.95049
0.95305
0.9492
0.93994
0.9389
0.93618
0.93782
0.93655
0.94038
0.94081
0.93147
0.94229
0.9422
0.93895
0.94436
0.94358
0.9437
0.93737
0.93454
0.92688
0.92274
0.92386
0.91235
0.92153
0.92566
0.92147
0.93718
0.92848
0.92483
0.91285
0.91788
0.92204
0.92124
0.91024
0.90536
0.89606
0.90229
0.90864
0.9163
0.91893
0.91754
0.91646
0.92334
0.91244
0.91177
0.91331
0.90726
0.90354
0.90048
0.89931
0.89798
0.88873
0.87535
0.88504
0.88666
0.89096
0.89366
0.88627
0.89279
0.89349
0.90377
0.89687
0.88962
0.88626
0.87922
0.88289
0.88312
0.88481
0.8914
0.88963
0.88658
0.88816
0.89466
0.87475
0.87209
0.87258
0.86434
0.86974
0.87761
0.87212
0.86544
0.86658
0.85025
0.85364
0.86004
0.85204
0.84909
0.85856
0.85198
0.85202
0.84539
0.84927
0.85202
0.85096
0.84151
0.84634
0.84034
0.85019
0.84207
0.83469
0.84488
0.84123
0.82831
0.83348
0.82594
0.82371
0.82638
0.83309
0.84202
0.83705
0.82975
0.83703
0.83454
0.83312
0.82788
0.82939
0.83127
0.821
0.81671
0.80835
0.81204
0.80377
0.81023
0.81451
0.81171
0.80957
0.80839
0.8012
0.7977
0.79485
0.80319
0.80197
0.79689
0.79953
0.79877
0.79846
0.80075
0.79933
0.79123
0.79145
0.78528
0.7904
0.78057
0.77836
0.77069
0.77958
0.78355
0.78215
0.78015
0.76901
0.77978
0.79048
0.79006
0.77327
0.77046
0.76792
0.7678
0.76719
0.768
0.77159
0.77195
0.7682
0.76221
0.76429
0.75916
0.75677
0.75228
0.75526
0.74975
0.75478
0.75867
0.75001
0.7574
0.75658
0.75121
0.74886
0.74769
0.74172
0.74374
0.74278
0.73718
0.72958
0.73257
0.73301
0.73343
0.73815
0.73324
0.73398
0.73572
0.74053
0.73381
0.7381
0.72793
0.72114
0.71981
0.71712
0.72007
0.72473
0.71758
0.71138
0.7166
0.72
0.72097
0.71605
0.71088
0.71766
0.72551
0.71543
0.71606
0.71726
0.71312
0.70147
0.70693
0.7098
0.703
0.69613
0.69871
0.7016
0.70143
0.69593
0.68719
0.69285
0.68935
0.69071
0.69287
0.69337
0.69237
0.69001
0.68719
0.6869
0.68293
0.68388
0.68242
0.68642
0.69189
0.68924
0.68675
0.67909
0.67913
0.67819
0.68188
0.67249
0.67722
0.66757
0.67117
0.67119
0.66404
0.66025
0.65773
0.65737
0.65629
0.65559
0.65365
0.65713
0.65398
0.6513
0.65396
0.65442
0.65066
0.64436
0.65272
0.64999
0.65056
0.6459
0.64985
0.64007
0.63759
0.63345
0.63483
0.63809
0.63798
0.63187
0.62995
0.63523
0.63428
0.63164
0.62827
0.63388
0.62957
0.62877
0.62871
0.62616
0.62233
0.61792
0.61443
0.61733
0.61872
0.61784
0.61396
0.61165
0.6161
0.62091
0.61661
0.61573
0.61124
0.60588
0.60653
0.60358
0.60217
0.60422
0.60582
0.60059
0.59669
0.59871
0.60407
0.60165
0.59491
0.59571
0.5936
0.59529
0.59189
0.59303
0.58996
0.58912
0.58382
0.58538
0.58023
0.57928
0.58298
0.58679
0.57986
0.57546
0.57704
0.57824
0.58013
0.58444
0.58019
0.57424
0.57298
0.57024
0.56843
0.56053
0.56392
0.56098
0.56675
0.56299
0.54917
0.55389
0.55726
0.55279
0.55172
0.55138
0.54664
0.55136
0.55797
0.5547
0.55671
0.54744
0.5413
0.5447
0.54617
0.54726
0.54464
0.54191
0.5371
0.53535
0.53861
0.54363
0.54278
0.53715
0.5348
0.53028
0.52972
0.5309
0.53307
0.53254
0.52303
0.52354
0.53262
0.52729
0.52313
0.52128
0.52146
0.51816
0.51729
0.51319
0.51469
0.5132
0.50935
0.50821
0.50301
0.5082
0.51057
0.5085
0.51826
0.50571
0.50756
0.50358
0.50427
0.50086
0.49903
0.50219
0.4974
0.4966
0.49385
0.49309
0.49736
0.49439
0.49649
0.49888
0.49793
0.49514
0.48964
0.49155
0.48802
0.48491
0.48624
0.48695
0.47828
0.48281
0.48325
0.47961
0.47986
0.47592
0.4735
0.47717
0.47633
0.46796
0.46664
0.4677
0.46448
0.46551
0.46443
0.45987
0.46776
0.47158
0.46733
0.46568
0.46115
0.46351
0.46409
0.46137
0.46001
0.45867
0.45375
0.45851
0.46073
0.45727
0.45859
0.45775
0.45377
0.45836
0.4513
0.4497
0.44795
0.4438
0.44948
0.44992
0.44745
0.44001
0.43505
0.43628
0.43855
0.43718
0.43358
0.43388
0.42695
0.43105
0.43035
0.43072
0.42649
0.42698
0.42089
0.4217
0.42527
0.4212
0.42198
0.42161
0.42104
0.41987
0.42146
0.41893
0.41777
0.41473
0.40897
0.40572
0.40983
0.40617
0.405
0.40734
0.41222
0.40444
0.39839
0.39585
0.4
0.40528
0.39829
0.39588
0.39372
0.39558
0.40092
0.40107
0.4002
0.3934
0.39235
0.39132
0.39209
0.38795
0.38855
0.39118
0.39461
0.39407
0.39218
0.39221
0.38778
0.38727
0.38802
0.38728
0.38899
0.37688
0.37889
0.38263
0.3765
0.3746
0.37815
0.37476
0.37139
0.37353
0.37247
0.37437
0.37542
0.36886
0.37143
0.36833
0.36868
0.37001
0.37537
0.37331
0.37025
0.36392
0.36677
0.36375
0.35642
0.35318
0.35394
0.35782
0.35845
0.35453
0.35374
0.34934
0.35046
0.34824
0.34829
0.35308
0.3531
0.35174
0.34953
0.34714
0.34311
0.35014
0.34426
0.34205
0.34198
0.34374
0.34196
0.34216
0.33738
0.33491
0.33766
0.33866
0.34108
0.33715
0.33378
0.33304
0.33539
0.32662
0.33202
0.32854
0.3271
0.32767
0.32497
0.3245
0.32316
0.3191
0.31881
0.31732
0.32278
0.3257
0.32349
0.31711
0.31782
0.31655
0.31586
0.31235
0.31816
0.31225
0.31071
0.31004
0.31172
0.30923
0.30657
0.30601
0.30604
0.30677
0.30931
0.3063
0.30617
0.30477
0.30423
0.30265
0.30298
0.29909
0.30575
0.30533
0.30089
0.30023
0.29558
0.29195
0.29661
0.29574
0.29521
0.29972
0.28784
0.29192
0.29102
0.28607
0.28962
0.28256
0.29048
0.28623
0.28087
0.28153
0.27993
0.27962
0.28047
0.27553
0.28652
0.28041
0.2802
0.27702
0.2789
0.28179
0.27434
0.27838
0.27258
0.27582
0.27281
0.26953
0.26861
0.26713
0.26682
0.26368
0.26558
0.26649
0.26394
0.26313
0.27021
0.26566
0.26361
0.25844
0.26236
0.26031
0.25543
0.26347
0.26175
0.261
0.26058
0.25975
0.25521
0.252
0.25016
0.25409
0.25088
0.2456
0.25037
0.24522
0.2496
0.244
0.24215
0.24312
0.24647
0.2448
0.24005
0.2426
0.24443
0.24122
0.24127
0.24312
0.24231
0.24064
0.23619
0.23631
0.23877
0.23979
0.24244
0.23594
0.2356
0.23391
0.22912
0.23253
0.23049
0.23141
0.22918
0.22854
0.23059
0.22798
0.22711
0.22888
0.22536
0.22415
0.22871
0.22932
0.22508
0.22683
0.22301
0.22728
0.22044
0.2167
0.22206
0.22018
0.22237
0.22237
0.21529
0.21359
0.21488
0.21108
0.21229
0.2095
0.21348
0.21525
0.21306
0.21192
0.21533
0.21382
0.21476
0.21243
0.20907
0.21167
0.2073
0.211
0.20359
0.20686
0.204
0.20422
0.21001
0.20249
0.20239
0.20217
0.20215
0.20579
0.20271
0.20081
0.20408
0.19647
0.19874
0.1989
0.19503
0.19529
0.19703
0.19274
0.19739
0.19391
0.20262
0.19689
0.19291
0.1954
0.19454
0.19458
0.19165
0.19287
0.18992
0.19123
0.18843
0.1896
0.19402
0.18782
0.18729
0.1853
0.18231
0.18421
0.18598
0.18162
0.18397
0.18674
0.1867
0.18632
0.18398
0.17354
0.18077
0.17426
0.17696
0.18343
0.1796
0.18263
0.18366
0.17495
0.17926
0.17463
0.17336
0.17481
0.17576
0.17769
0.1727
0.17121
0.18064
0.17112
0.17234
0.172
0.1681
0.17285
0.17173
0.16996
0.16834
0.16778
0.16947
0.17306
0.16889
0.16753
0.17068
0.16244
0.16126
0.15831
0.16368
0.16268
0.16513
0.1584
0.15707
0.16503
0.16286
0.15933
0.16134
0.16125
0.1602
0.15991
0.1574
0.16145
0.16067
0.16198
0.1555
0.15477
0.15559
0.15653
0.15351
0.15372
0.15341
0.14557
0.15121
0.14766
0.15538
0.15388
0.15001
0.15001
0.14618
0.14578
0.15053
0.15537
0.15315
0.15168
0.15015
0.14888
0.14645
0.15435
0.15539
0.15025
0.14592
0.14585
0.15066
0.1525
0.14684
0.14693
0.14837
0.14025
0.14503
0.14043
0.14556
0.14361
0.14609
0.1482
0.1391
0.14022
0.1329
0.13598
0.13375
0.14091
0.14047
0.14083
0.13621
0.13414
0.14217
0.14312
0.13398
0.13214
0.1388
0.12917
0.1304
0.12955
0.13447
0.13759
0.12079
0.13027
0.13572
0.13147
0.13635
0.13125
0.13187
0.12599
0.12934
0.13501
0.12593
0.13011
0.12993
0.1332
0.12478
0.12664
0.12569
0.12597
0.12774
0.12277
0.12482
0.13122
0.12519
0.12019
0.12428
0.12874
0.12057
0.128
0.12109
0.12254
0.12309
0.12491
0.11919
0.124
0.12116
0.12017
0.12078
0.11576
0.12236
0.11961
0.11661
0.11802
0.12104
0.11259
0.12109
0.12532
0.1102
0.11177
0.11584
0.11662
0.11106
0.11584
0.11988
0.12647
0.10941
0.11276
0.11723
0.11026
0.11635
0.11519
0.11328
0.11679
0.11026
0.11995
0.11233
0.11324
0.10405
0.10632
0.11258
0.11047
0.10296
0.10786
0.11494
0.10875
0.11334
0.11316
0.10034
0.10465
0.10485
0.11367
0.10798
0.10735
0.10479
0.10205
0.10674
0.10866
0.1058
0.11017
0.10431
0.10295
0.10421
0.10531
0.10761
0.10596
0.10199
0.09804
0.10378
0.09862
0.09666
0.10063
0.1056
0.09826
0.10775
0.10076
0.0974
0.10562
0.09701
0.10616
0.10288
0.09818
0.10275
0.10216
0.09556
0.09497
0.09261
0.10644
0.09381
0.10126
0.09204
0.09968
0.09251
0.10224
0.09272
0.0982
0.09096
0.09783
0.0912
0.09238
0.09838
0.10242
0.0954
0.10331
0.10017
0.1007
0.0967
0.09229
0.09781
0.09112
0.0938
0.0941
0.09004
0.09834
0.08708
0.08914
0.0918
0.07509
0.08244
0.09142
0.08236
0.08683
0.106
0.09759
0.08665
0.08657
0.08539
0.08479
0.08571
0.08811
0.09064
0.08802
0.09258
0.08844
0.09717
0.08842
0.08472
0.08421
0.08691
0.08644
0.09001
0.082
0.08777
0.08662
0.07849
0.08068
0.09129
0.09388
0.07839
0.07844
0.07672
0.08367
0.08236
0.08222
0.08942
0.07397
0.08049
0.08439
0.07685
0.08515
0.07748
0.08388
0.06676
0.07541
0.08351
0.09012
0.0833
0.07542
0.07502
0.0815
0.0754
0.07649
0.07143
0.06848
0.07823
0.07603
0.07718
0.08182
0.07248
0.06743
0.07266
0.07462
0.07586
0.0775
0.07556
0.07319
0.08019
0.08176
0.06987
0.07049
0.06737
0.07951
0.06793
0.08048
0.07605
0.07483
0.06758
0.06568
0.07756
0.07886
0.08145
0.07586
0.07638
0.07969
0.06866
0.06612
0.07801
0.06445
0.06619
0.07097
0.05884
0.06075
0.08503
0.06607
0.0751
0.06974
0.06761
0.07502
0.07277
0.06975
0.06523
0.06873
0.07128
0.06575
0.07685
0.0676
0.06677
0.08228
0.06781
0.07615
0.07604
0.06477
0.07083
0.05711
0.06496
0.07714
0.05358
0.0756
0.074
0.06433
0.06475
0.06353
0.06492
0.09141
0.05873
0.06501
0.06267
0.06112
0.07237
0.07403
0.06726
0.0736
0.05414
0.07149
0.05664
0.07051
0.05077
0.06368
0.07308
0.05966
0.06632
0.06914
0.05576
0.06774
0.05723
0.06566
0.06569
0.06716
0.0656
0.05207
0.05632
0.04491
0.0661
0.05945
0.04284
0.0677
0.06437
0.06406
0.05778
0.05179
0.06169
0.05062
0.07003
0.04726
0.058
0.0674
0.0656
0.05047
0.06343
0.06321
0.06145
0.04574
0.078
0.05419
0.06041
0.07142
0.06307
0.05459
0.05429
0.05114
0.05487
0.04933
0.0394
0.04988
0.05489
0.05469
0.05878
0.06145
0.08122
0.071
0.04878
0.0556
0.08008
0.05995
0.07123
0.06478
0.06075
0.07697
0.06267
0.03906
0.05557
0.05927
0.05546
0.04071
0.06056
0.05333
0.04473
0.04407
0.05053
0.04669
0.05563
0.05357
0.03765
0.05486
0.06422
0.05652
0.03174
0.05293
0.02926
0.04663
0.05489
0.06013
0.05476
0.03728
0.04624
0.03752
0.04686
0.04773
0.04989
0.05964
0.06938
0.05334
0.05368
0.0504
0.06132
0.0536
0.042
0.0587
0.02093
0.05863
0.03112
0.04167
0.0476
0.07085
0.06123
0.05432
0.06923
0.0464
0.05874
0.05013
0.05535
0.06024
0.04341
0.04053
0.06584
0.04876
0.07041
0.06771
0.04861
0.04404
0.05505
0.02701
0.04214
0.04817
0.04324
0.06825
0.04819
0.06142
0.05125
0.06391
0.03355
0.03248
0.03404
0.04511
0.0523
0.05144
0.04891
0.05944
0.04131
0.04183
0.0605
0.04388
0.06305
0.04314
0.03727
0.06978
0.06732
0.03362
0.03305
0.05373
0.05683
0.05839
0.04744
0.04639
0.04099
0.0272
0.04454
0.04721
0.04666
0.06118
0.03533
0.04793
0.02869
0.03074
0.04206
0.05688
0.03013
0.0649
0.05318
0.05681
0.01163
0.04052
0.038
0.03997
0.01712
0.04758
0.03873
0.04554
0.04886
-0.00163
0.04358
0.03386
0.03225
0.01906
0.04074
0.03898
0.02608
0.02073
0.04126
0.06772
0.02207
0.05775
0.07364
0.05715
0.0388
0.01591
0.01804
0.049
0.05897
0.03199
0.02051
0.06496
0.03147
0.04131
0.07179
0.04269
0.06778
0.07397
0.04738
0.0602
0.01807
0.04827
-0.00197
0.04093
0.03783
0.01421
0.05345
0.02861
0.02667
-0.00174
0.06061
0.03252
0.0308
0.02499
0.02688
0.03466
0.03237
0.03908
0.03275
0.06728
0.06559
0.02339
0.04959
0.02505
0.04814
0.03898
0.00702
0.05016
0.03682
0.03374
0.03824
0.05328
0.04572
0.06783
0.04643
0.04493
0.03822
];

S0side=[
    9.81403E-4
7.49862E-4
5.7002E-4
7.98775E-4
-5.02967E-4
7.65169E-4
4.72501E-4
1.97183E-4
-1.08429E-5
5.77151E-4
1.78007E-4
0.00111
3.22168E-4
5.21738E-4
3.99939E-4
-4.23335E-4
-1.32022E-4
0.00126
9.97037E-4
-4.48349E-4
0.00121
7.54721E-4
6.23813E-4
0.001
-9.41611E-5
9.9207E-4
-3.7856E-4
8.79411E-4
7.60089E-4
2.60689E-4
5.58964E-5
-3.41243E-4
6.40443E-4
-6.89643E-4
0.00121
-2.87125E-5
5.56282E-4
9.14683E-4
6.12205E-4
-3.08402E-4
5.548E-4
1.17752E-4
3.11858E-5
6.38732E-4
6.17037E-4
-1.89768E-4
9.32171E-4
3.47698E-4
6.68808E-4
6.42056E-4
5.59656E-4
2.1082E-4
9.08529E-4
2.15702E-4
3.41418E-4
3.70608E-4
6.11164E-4
-2.63782E-4
7.29583E-4
3.38127E-4
4.07055E-4
-6.39457E-4
4.16721E-5
-2.43599E-4
1.61852E-4
6.88013E-4
8.72666E-5
0.0011
4.81085E-5
9.9178E-4
2.52659E-4
2.77364E-4
0.00139
1.326E-4
1.18944E-4
2.23507E-4
3.05561E-4
7.78509E-4
5.62679E-4
8.87892E-4
7.71841E-5
5.24775E-4
6.96129E-4
-3.01038E-4
2.19296E-4
-1.59179E-4
6.89935E-5
6.79979E-4
7.28586E-5
0.00109
8.50076E-5
4.50872E-4
1.83859E-4
8.16034E-4
8.83794E-4
5.7043E-4
4.74656E-5
1.3667E-4
1.21928E-4
8.0357E-5
9.50234E-4
4.85261E-4
4.96855E-4
2.30529E-4
2.3195E-4
4.21577E-4
2.22102E-4
5.67268E-4
3.40016E-4
9.24479E-4
2.8063E-4
1.36244E-4
-2.11535E-4
6.0882E-4
1.22408E-4
-1.57895E-4
9.19616E-4
3.5535E-4
5.46569E-4
5.88343E-4
-7.40164E-5
6.61519E-4
9.35094E-5
9.58753E-4
0.0016
-6.14712E-4
7.18108E-4
5.75665E-4
1.59178E-4
8.19861E-4
0.00145
6.82688E-5
4.49154E-4
-6.7292E-5
8.1954E-4
7.35131E-5
9.22281E-5
1.20923E-4
-1.15143E-4
-2.60505E-4
0.0014
0.00103
6.44401E-4
0.001
-2.8716E-4
1.813E-4
0.00104
1.3296E-4
-1.09756E-4
7.23231E-4
5.69356E-4
1.47891E-4
-3.54969E-4
3.06208E-4
-2.48081E-5
5.02825E-4
-3.66284E-5
2.72753E-5
5.10832E-4
3.75871E-5
3.60322E-4
-5.09142E-5
3.94072E-4
4.37389E-4
3.25594E-4
2.68675E-4
7.01811E-4
-2.49779E-4
-5.85667E-4
7.10159E-4
-2.62949E-4
3.24079E-4
6.78304E-4
3.74371E-4
1.39653E-4
6.25275E-4
-2.29125E-4
-9.20974E-4
-6.28619E-5
2.60661E-4
3.73739E-4
9.04989E-4
7.50279E-4
5.84639E-5
0.00105
-2.23666E-4
8.21322E-4
1.68068E-4
-2.25769E-5
6.03266E-4
5.06286E-4
-2.84843E-5
0.0011
7.95675E-4
5.38879E-4
7.38443E-4
1.70746E-4
3.87852E-4
-3.96124E-5
3.9029E-4
6.86277E-4
5.93366E-4
0.00103
-3.3773E-4
4.21704E-4
-3.36601E-5
0.0012
5.33426E-4
-1.78571E-4
6.03884E-4
0.0012
4.57832E-4
9.20402E-4
2.74559E-4
-8.49747E-5
5.8567E-4
-1.21163E-4
3.30778E-4
7.34337E-4
1.94713E-4
-1.81144E-5
5.38715E-4
0.00112
7.91587E-5
1.99409E-4
7.72454E-4
2.19027E-4
-5.31847E-4
9.17508E-4
6.6759E-5
0.00121
7.38506E-5
8.6327E-4
2.81173E-4
8.00161E-4
4.39265E-4
0.00104
1.50626E-5
8.42439E-4
3.09943E-4
8.44745E-4
9.00197E-4
-4.00808E-5
7.83531E-4
0.00108
8.44885E-4
4.99901E-4
3.84364E-4
7.85616E-4
5.54227E-4
2.04568E-4
-3.91904E-4
0.00111
-7.83341E-5
-1.52455E-4
0.00107
3.75168E-6
-1.20615E-4
3.66982E-4
-3.69845E-4
-9.44073E-5
1.53187E-4
7.30838E-4
1.55001E-4
2.07429E-4
0.00161
-6.01751E-5
0.00127
3.71398E-4
4.38214E-4
-6.7995E-4
0.00115
8.44874E-5
9.87416E-4
-1.60229E-4
5.79125E-4
3.56538E-4
-4.97306E-4
4.91121E-4
-5.74011E-4
3.51124E-4
-1.25407E-4
1.23853E-4
4.77202E-4
0.00115
7.76571E-4
2.23995E-4
7.68487E-4
5.76652E-4
2.0696E-4
8.15588E-4
5.06467E-4
5.14188E-4
5.68973E-4
-1.81336E-4
4.60262E-4
4.7546E-4
-8.37365E-5
8.66442E-6
2.74145E-4
2.06623E-4
1.70953E-4
-2.57761E-4
5.00079E-4
-5.09846E-4
5.22214E-4
9.91557E-5
6.11222E-4
5.20415E-4
-1.12119E-4
7.0765E-4
9.963E-4
5.5404E-4
5.65145E-4
6.23218E-4
2.89077E-4
2.28536E-4
2.02678E-4
0.00132
7.61005E-4
-2.02256E-4
6.20333E-4
7.64295E-4
4.96049E-4
9.32784E-4
4.6007E-4
9.32506E-4
2.35179E-4
0.00102
3.64693E-4
7.8905E-4
6.80459E-4
3.75521E-4
3.61748E-4
8.68359E-4
6.47792E-4
7.31207E-4
9.00385E-4
0.00136
0.00163
0.00154
0.00116
0.00187
6.42725E-4
0.00139
0.00108
0.0017
0.00148
0.00184
0.00153
0.0028
0.00229
9.61789E-4
0.00176
0.00181
0.0014
0.00177
0.00317
0.00285
0.00258
0.00325
0.00293
0.00316
0.00323
0.00348
0.00413
0.00331
0.00391
0.00427
0.00429
0.00389
0.0043
0.00491
0.00441
0.00551
0.00602
0.00618
0.00624
0.00593
0.00622
0.00647
0.00715
0.00701
0.00743
0.00786
0.00777
0.00874
0.00911
0.00903
0.00953
0.00977
0.00996
0.01014
0.0104
0.01053
0.01173
0.01137
0.01135
0.01198
0.01199
0.01233
0.01349
0.01389
0.0133
0.01519
0.01448
0.01477
0.01595
0.01551
0.01577
0.01652
0.0175
0.01684
0.01779
0.01799
0.01819
0.01901
0.01978
0.01977
0.0206
0.02067
0.02184
0.02145
0.02188
0.02285
0.02306
0.02339
0.02382
0.02466
0.0245
0.02496
0.02614
0.02702
0.02639
0.02696
0.02829
0.02739
0.02873
0.02945
0.0298
0.03063
0.03114
0.03173
0.03329
0.0329
0.0327
0.03367
0.03527
0.03535
0.03599
0.03618
0.03623
0.03801
0.03835
0.03877
0.03927
0.04028
0.0406
0.04141
0.042
0.04205
0.04374
0.04374
0.04483
0.04532
0.04623
0.04646
0.04684
0.04827
0.04826
0.0494
0.05017
0.04976
0.05133
0.05263
0.05351
0.05439
0.05395
0.05527
0.05568
0.05684
0.0578
0.05864
0.05924
0.06015
0.06213
0.06118
0.06229
0.06356
0.06485
0.06464
0.06616
0.06695
0.06633
0.06955
0.06946
0.06984
0.07045
0.07162
0.07308
0.07316
0.07488
0.07498
0.07659
0.07762
0.07764
0.07942
0.07954
0.08116
0.08094
0.08287
0.08421
0.08604
0.0861
0.08691
0.08768
0.08769
0.0897
0.09134
0.0925
0.09341
0.09459
0.09348
0.09562
0.09742
0.09796
0.09824
0.09956
0.102
0.10283
0.10204
0.10449
0.10551
0.10651
0.10807
0.10944
0.11029
0.11113
0.11226
0.11331
0.11307
0.11672
0.11644
0.11872
0.12124
0.12076
0.12216
0.12439
0.12449
0.12726
0.12932
0.12769
0.12915
0.13087
0.13349
0.13549
0.13514
0.13845
0.13917
0.13995
0.14153
0.14366
0.14466
0.14461
0.14392
0.14661
0.14734
0.152
0.15168
0.15329
0.15443
0.15638
0.15786
0.15831
0.1596
0.15997
0.16351
0.16443
0.16601
0.16609
0.16904
0.16784
0.17022
0.17339
0.17661
0.17596
0.17809
0.17998
0.18077
0.18365
0.18461
0.18511
0.18622
0.18806
0.18757
0.19085
0.19136
0.19385
0.19683
0.19801
0.20107
0.20197
0.2014
0.20659
0.20673
0.20806
0.21078
0.21089
0.21376
0.21265
0.21452
0.21637
0.22009
0.22124
0.22451
0.22514
0.22675
0.22817
0.23026
0.23273
0.23352
0.23585
0.23825
0.23879
0.2398
0.24262
0.24371
0.24587
0.24943
0.25045
0.25064
0.25353
0.2555
0.25735
0.26035
0.26119
0.26096
0.26279
0.26613
0.26784
0.27034
0.27039
0.27437
0.27505
0.27573
0.28075
0.28161
0.28394
0.2859
0.28941
0.29003
0.29233
0.29324
0.29383
0.29735
0.30029
0.30106
0.30318
0.30602
0.30598
0.3082
0.30904
0.31126
0.31413
0.31477
0.31682
0.32323
0.3232
0.32596
0.3258
0.3291
0.33067
0.33062
0.33459
0.33627
0.33919
0.34056
0.3426
0.34628
0.34503
0.34759
0.35304
0.35454
0.35805
0.35625
0.35578
0.35941
0.36326
0.36877
0.37155
0.37497
0.37271
0.37826
0.37591
0.38034
0.3824
0.38437
0.38415
0.38699
0.39156
0.39281
0.39336
0.39437
0.39991
0.39874
0.40406
0.40467
0.40697
0.40631
0.40984
0.41068
0.41602
0.41699
0.41882
0.4195
0.42457
0.42534
0.42827
0.43221
0.43251
0.43143
0.43463
0.43612
0.43886
0.44103
0.44383
0.44698
0.44867
0.45246
0.45429
0.45535
0.4552
0.45949
0.46202
0.46374
0.46856
0.47071
0.47069
0.47437
0.47591
0.48321
0.47931
0.48319
0.48171
0.48641
0.4808
0.48777
0.49505
0.49514
0.49948
0.5012
0.50347
0.506
0.50511
0.50503
0.51394
0.51215
0.51761
0.51665
0.51451
0.51863
0.52256
0.53078
0.53102
0.52824
0.53558
0.53646
0.53827
0.54316
0.54133
0.54321
0.54093
0.55205
0.55445
0.55504
0.5584
0.56471
0.56935
0.57485
0.57634
0.57752
0.5767
0.58312
0.58591
0.59438
0.60083
0.60306
0.60106
0.5918
0.59287
0.59247
0.59271
0.59683
0.59704
0.59726
0.59831
0.59904
0.59423
0.60073
0.60554
0.60677
0.60783
0.60845
0.61163
0.6148
0.61918
0.6192
0.62144
0.6223
0.62824
0.62894
0.63224
0.63233
0.63337
0.63784
0.64656
0.64223
0.64572
0.64704
0.64924
0.65523
0.65135
0.65113
0.65541
0.66452
0.66247
0.66707
0.6714
0.66716
0.66644
0.66448
0.66763
0.67467
0.6766
0.68076
0.67877
0.68245
0.68408
0.68876
0.69475
0.69716
0.69115
0.69214
0.69575
0.69619
0.69828
0.6999
0.69976
0.70512
0.70351
0.70539
0.71154
0.71673
0.71673
0.71086
0.71516
0.71596
0.72392
0.72446
0.72513
0.7282
0.72554
0.7312
0.73094
0.72603
0.73072
0.73115
0.73796
0.73656
0.73978
0.7435
0.74739
0.75004
0.74717
0.74709
0.74928
0.75974
0.75779
0.75423
0.75727
0.75996
0.76362
0.76562
0.76695
0.7715
0.77065
0.76874
0.76825
0.77071
0.77124
0.77927
0.78132
0.78702
0.78086
0.77866
0.78859
0.79234
0.78578
0.79134
0.79944
0.80156
0.80283
0.80263
0.79929
0.80638
0.81039
0.80884
0.80784
0.80929
0.80657
0.81207
0.81212
0.8136
0.81103
0.81223
0.81438
0.81803
0.82084
0.82169
0.82698
0.83439
0.82749
0.83261
0.83589
0.83797
0.83368
0.83593
0.83391
0.83208
0.83821
0.83926
0.83432
0.83153
0.83696
0.84127
0.8519
0.84822
0.85148
0.84938
0.8507
0.85798
0.86143
0.85952
0.86079
0.8641
0.86648
0.86597
0.87163
0.87468
0.85838
0.86778
0.8638
0.86914
0.87448
0.87481
0.87575
0.88007
0.88727
0.87656
0.88031
0.8873
0.87975
0.8866
0.8884
0.88853
0.8944
0.88864
0.89331
0.88486
0.88528
0.8964
0.89142
0.89644
0.89766
0.89916
0.89346
0.8983
0.89713
0.89709
0.89515
0.89552
0.89243
0.90181
0.89966
0.90554
0.90722
0.90599
0.91589
0.91123
0.91378
0.91233
0.91379
0.92561
0.91926
0.90994
0.90892
0.91623
0.91799
0.92107
0.9234
0.91919
0.91968
0.92466
0.92552
0.93854
0.9266
0.92963
0.93563
0.92652
0.93857
0.93677
0.93648
0.93869
0.93818
0.93823
0.93616
0.9325
0.92388
0.92573
0.93913
0.93862
0.93853
0.93412
0.93402
0.93415
0.9448
0.95157
0.9505
0.9493
0.94688
0.94982
0.94472
0.95276
0.95675
0.95931
0.96471
0.95934
0.96031
0.95521
0.96315
0.96529
0.96189
0.95924
0.95446
0.95626
0.96155
0.96193
0.96036
0.97771
0.97374
0.97218
0.9645
0.97057
0.97382
0.96825
0.96334
0.96939
0.96975
0.97574
0.97552
0.97827
0.96951
0.96842
0.97942
0.96453
0.96877
0.97463
0.96262
0.96898
0.97668
0.97297
0.98144
0.97911
0.9844
0.98556
0.9846
0.97502
0.98396
0.97708
0.97179
0.97516
0.9827
0.98084
0.9877
0.98097
0.98623
0.98889
0.9894
0.98892
0.9877
0.98921
0.98026
0.97222
0.9771
0.98814
0.99699
0.99351
0.99942
0.99463
0.9929
1
0.99805
0.98751
0.9837
0.9813
0.98361
0.9916
0.9932
0.99093
0.98716
0.9804
0.98514
0.99461
0.99101
0.99843
0.99624
0.98908
0.99193
0.98727
0.99269
0.99187
0.99192
0.99589
1.00373
0.99738
1.00313
1.01092
1.00366
0.99932
1.00436
1.00117
1.00491
1.00623
0.99885
0.99854
1.00482
1.00968
1.00292
1.00941
1.00723
1.00955
1.00607
0.99948
0.99448
0.99022
0.99337
0.98772
1.00317
1.00066
1.00636
1.01172
1.00218
0.99906
0.99825
1.00426
1.00496
0.99901
0.99287
0.9882
0.99628
1.00237
0.99491
1.00651
1.00396
0.99768
0.99718
0.99146
0.99029
0.99413
0.99034
0.99113
0.98836
0.99152
0.98684
0.99296
0.99233
0.99912
0.99511
0.99331
0.99721
0.99805
1.00857
1.00226
0.99768
0.99736
0.9958
1.00224
0.99912
0.9935
0.99664
0.99324
0.99356
0.99062
0.98246
0.98404
0.98275
0.98729
0.99699
0.98876
0.98227
0.9879
0.99159
0.99483
0.98603
0.9803
0.98226
0.97792
0.99271
0.99791
0.99365
0.98689
0.9798
0.97779
0.9877
0.98943
0.98051
0.97568
0.98155
0.9914
0.98643
0.98524
0.98407
0.98338
0.97291
0.96908
0.96716
0.96884
0.97409
0.9791
0.97814
0.97948
0.98169
0.97448
0.97579
0.9715
0.96513
0.95992
0.96526
0.95909
0.96107
0.97076
0.96518
0.97321
0.96763
0.975
0.97268
0.96733
0.96168
0.96948
0.97228
0.96854
0.95929
0.9586
0.95602
0.95788
0.95677
0.96088
0.96151
0.95234
0.9636
0.96369
0.96056
0.96629
0.96588
0.96619
0.9599
0.9572
0.94954
0.94548
0.94701
0.93539
0.94499
0.94942
0.9453
0.96161
0.95306
0.94951
0.93739
0.94274
0.9472
0.94656
0.93563
0.9308
0.92142
0.92801
0.93473
0.94279
0.94587
0.94462
0.9437
0.95097
0.93994
0.93943
0.94139
0.93534
0.93168
0.92872
0.92769
0.9265
0.91732
0.90369
0.91387
0.91572
0.92034
0.9235
0.91604
0.92296
0.92387
0.93468
0.92772
0.92041
0.91729
0.91019
0.91416
0.91458
0.91651
0.92352
0.92204
0.91906
0.92088
0.92762
0.90716
0.90458
0.90526
0.89689
0.90249
0.91083
0.90532
0.89855
0.89974
0.88295
0.88665
0.89347
0.88534
0.88227
0.89228
0.88562
0.88583
0.87894
0.88315
0.88619
0.88526
0.87559
0.88061
0.87454
0.88497
0.87669
0.86901
0.87978
0.87616
0.86286
0.86842
0.86056
0.85841
0.86136
0.86853
0.87784
0.87282
0.86538
0.87314
0.87054
0.86924
0.86393
0.86568
0.8678
0.85709
0.85278
0.84421
0.84823
0.83959
0.8465
0.85114
0.84838
0.8463
0.84507
0.83772
0.83422
0.8314
0.84013
0.83902
0.83386
0.83679
0.83616
0.83583
0.83839
0.83707
0.82875
0.82897
0.82267
0.8282
0.81806
0.81574
0.80786
0.81733
0.82165
0.82035
0.81825
0.80672
0.81818
0.82957
0.82912
0.81166
0.80887
0.80635
0.80639
0.80574
0.80675
0.81069
0.81122
0.80727
0.80114
0.80348
0.79823
0.79573
0.79116
0.79445
0.7888
0.79424
0.79834
0.78938
0.79731
0.7966
0.79094
0.78863
0.78754
0.78141
0.78369
0.78267
0.77693
0.76906
0.77236
0.77283
0.77342
0.77855
0.77352
0.7743
0.77628
0.78151
0.77457
0.77925
0.76851
0.76149
0.76023
0.75753
0.76065
0.76571
0.75831
0.7519
0.75742
0.76116
0.76233
0.75728
0.75195
0.75912
0.76758
0.75705
0.75787
0.75914
0.75491
0.74271
0.74864
0.75168
0.74462
0.73748
0.74036
0.74356
0.74338
0.73769
0.72857
0.73471
0.731
0.73258
0.73502
0.73569
0.73463
0.73226
0.7294
0.72924
0.72517
0.72617
0.72476
0.72915
0.7351
0.73228
0.72978
0.72178
0.72196
0.72096
0.72502
0.71517
0.72034
0.71008
0.71404
0.7142
0.70672
0.70282
0.70014
0.69989
0.69888
0.69827
0.6962
0.70004
0.69682
0.69409
0.69693
0.69755
0.69368
0.68709
0.69614
0.69323
0.69397
0.68912
0.69348
0.68304
0.68052
0.67623
0.67783
0.68132
0.68132
0.67493
0.67301
0.67865
0.67777
0.67506
0.67159
0.67772
0.67311
0.67239
0.67245
0.66985
0.66575
0.66115
0.65755
0.66077
0.66227
0.66145
0.65742
0.65507
0.65983
0.66511
0.66063
0.65981
0.65513
0.64939
0.6502
0.64716
0.64578
0.64797
0.64981
0.64433
0.64026
0.64243
0.6483
0.64583
0.63872
0.63957
0.63743
0.63937
0.63583
0.63705
0.63387
0.6331
0.62752
0.62931
0.62378
0.62288
0.62697
0.63119
0.62373
0.61912
0.62094
0.62234
0.62438
0.62914
0.62468
0.61839
0.61703
0.6142
0.61237
0.60396
0.60762
0.60457
0.6109
0.60696
0.59218
0.59726
0.60101
0.5963
0.59526
0.59489
0.5899
0.59509
0.60234
0.59882
0.6011
0.59119
0.58468
0.58836
0.59005
0.59134
0.58862
0.58566
0.58058
0.57879
0.58243
0.58797
0.58705
0.58106
0.57864
0.57386
0.57324
0.57463
0.57709
0.57662
0.56632
0.56699
0.57693
0.57126
0.56675
0.56485
0.56515
0.56169
0.56075
0.5564
0.55813
0.55662
0.55245
0.55131
0.54577
0.55151
0.55408
0.55193
0.56264
0.54912
0.55123
0.5469
0.54775
0.54416
0.54227
0.5457
0.5406
0.53983
0.53694
0.53611
0.54086
0.53773
0.54011
0.54271
0.54178
0.53885
0.53296
0.53504
0.53129
0.52801
0.52955
0.53033
0.52098
0.52602
0.52659
0.52263
0.523
0.5188
0.51626
0.52026
0.51944
0.51041
0.50906
0.51022
0.5068
0.50802
0.50693
0.50205
0.51067
0.51493
0.51038
0.50868
0.50372
0.5064
0.50713
0.50425
0.50277
0.50139
0.4961
0.50141
0.50384
0.50014
0.50168
0.50085
0.49649
0.50161
0.49398
0.49232
0.4904
0.48595
0.49226
0.49283
0.49013
0.48206
0.47673
0.47816
0.48064
0.47924
0.47537
0.47579
0.4682
0.47278
0.4721
0.47259
0.46795
0.46858
0.46197
0.46295
0.46687
0.46249
0.46343
0.46311
0.46248
0.46129
0.46311
0.46042
0.45914
0.45589
0.44965
0.44615
0.45067
0.44673
0.44552
0.44818
0.45355
0.44507
0.4385
0.43578
0.44035
0.44624
0.43862
0.43605
0.43368
0.43581
0.44176
0.44202
0.44106
0.43364
0.43256
0.43151
0.43236
0.42787
0.42861
0.4316
0.43538
0.43486
0.43285
0.43297
0.42808
0.42759
0.4285
0.42777
0.42965
0.41636
0.41865
0.42286
0.41609
0.41406
0.41806
0.41438
0.41067
0.4131
0.41201
0.41419
0.41535
0.40816
0.41108
0.40773
0.40811
0.40967
0.41567
0.41347
0.41008
0.40315
0.40637
0.40311
0.39498
0.39146
0.39237
0.39675
0.39745
0.39317
0.39237
0.38756
0.38881
0.38641
0.38654
0.39192
0.39194
0.39051
0.38812
0.38555
0.38107
0.38894
0.38248
0.38009
0.38002
0.38205
0.38014
0.38043
0.37512
0.37244
0.37556
0.37674
0.37944
0.37513
0.37145
0.37069
0.37331
0.36361
0.3697
0.36589
0.36428
0.36499
0.36204
0.36159
0.36009
0.35563
0.35538
0.35378
0.35986
0.36318
0.36078
0.35373
0.35453
0.35317
0.35247
0.34861
0.3551
0.34857
0.34691
0.34623
0.34811
0.34538
0.34248
0.34192
0.34195
0.34282
0.34573
0.34243
0.34228
0.34078
0.34024
0.33853
0.33896
0.33467
0.34218
0.34178
0.33686
0.33619
0.33105
0.32704
0.33232
0.33135
0.33081
0.33592
0.32266
0.3273
0.32635
0.32086
0.3249
0.31703
0.32598
0.32127
0.31531
0.3161
0.31431
0.31402
0.31503
0.30954
0.32195
0.31514
0.31496
0.31144
0.31361
0.31692
0.30859
0.31319
0.30672
0.31042
0.30704
0.3034
0.30242
0.30081
0.30051
0.29703
0.29922
0.3003
0.29748
0.29663
0.30466
0.29959
0.29733
0.29155
0.29597
0.29371
0.28826
0.29738
0.2955
0.2947
0.29428
0.29339
0.28832
0.28475
0.28272
0.2872
0.28363
0.27766
0.2831
0.27733
0.28234
0.27605
0.27401
0.27515
0.279
0.27716
0.27182
0.27477
0.27689
0.2733
0.27335
0.2755
0.27463
0.27279
0.26779
0.26797
0.27082
0.27202
0.27507
0.26775
0.26741
0.26554
0.26015
0.26402
0.26175
0.26284
0.26036
0.25968
0.26205
0.25913
0.25819
0.26025
0.25629
0.25496
0.26019
0.26093
0.25616
0.25815
0.25385
0.25875
0.251
0.24679
0.25295
0.25085
0.25339
0.25343
0.24541
0.24351
0.24503
0.2407
0.24212
0.23898
0.24356
0.24563
0.24317
0.24191
0.24585
0.24417
0.24529
0.24266
0.23887
0.24188
0.23689
0.24116
0.23274
0.23651
0.23329
0.23358
0.24024
0.23168
0.2316
0.2314
0.23141
0.23562
0.2321
0.22996
0.23375
0.22507
0.22772
0.22793
0.22355
0.22388
0.22592
0.22104
0.22641
0.22246
0.23245
0.22591
0.22139
0.22428
0.22333
0.22342
0.22009
0.22154
0.21818
0.21973
0.21655
0.21794
0.22306
0.21592
0.21536
0.21311
0.2097
0.21193
0.214
0.20902
0.21176
0.21499
0.21498
0.21458
0.21189
0.1999
0.20827
0.2008
0.20395
0.21144
0.20706
0.21059
0.21182
0.20181
0.20681
0.2015
0.20008
0.20175
0.20288
0.20515
0.19942
0.19774
0.20867
0.1977
0.19915
0.19879
0.19431
0.19984
0.19855
0.19654
0.1947
0.19408
0.19607
0.20026
0.19547
0.19393
0.19761
0.1881
0.18677
0.18339
0.1896
0.18848
0.19135
0.18358
0.18208
0.19134
0.18886
0.18479
0.18716
0.18709
0.1859
0.18556
0.18268
0.18742
0.18655
0.1881
0.1806
0.17978
0.18077
0.1819
0.17842
0.17869
0.17836
0.16925
0.17584
0.17173
0.18075
0.17904
0.17456
0.1746
0.17017
0.16974
0.17529
0.18096
0.17837
0.17669
0.17494
0.17349
0.17069
0.17993
0.18118
0.1752
0.17019
0.17014
0.17577
0.17792
0.17135
0.17148
0.1732
0.16375
0.16936
0.16401
0.17003
0.16779
0.17071
0.17321
0.16257
0.16391
0.15538
0.15901
0.15643
0.16483
0.16434
0.16479
0.15942
0.15702
0.16646
0.16756
0.15689
0.15476
0.16259
0.15134
0.15281
0.15184
0.15762
0.16131
0.14164
0.15275
0.15918
0.15422
0.15998
0.15402
0.15477
0.14789
0.15185
0.15854
0.14789
0.15284
0.15263
0.15649
0.14662
0.14884
0.14774
0.1481
0.15021
0.14439
0.14683
0.15438
0.14729
0.14142
0.14627
0.15154
0.14195
0.15072
0.14261
0.14434
0.14502
0.14719
0.14047
0.14614
0.14281
0.14167
0.14241
0.13652
0.14433
0.1411
0.13759
0.13928
0.14286
0.13292
0.14295
0.14797
0.13014
0.13202
0.13685
0.1378
0.13124
0.13692
0.14172
0.14951
0.12936
0.13335
0.13865
0.13044
0.13766
0.13631
0.13408
0.13826
0.13055
0.14205
0.13302
0.13413
0.12326
0.12597
0.13341
0.13093
0.12205
0.12788
0.1363
0.12898
0.13442
0.13424
0.11905
0.12418
0.12444
0.13494
0.1282
0.12748
0.12446
0.12122
0.12679
0.1291
0.12571
0.13093
0.12399
0.12239
0.12392
0.12525
0.128
0.12606
0.12134
0.11665
0.12351
0.11739
0.11508
0.11983
0.12577
0.11704
0.12837
0.12006
0.11605
0.12587
0.11563
0.12656
0.12267
0.11709
0.12255
0.12187
0.11402
0.11331
0.11052
0.12704
0.11199
0.12091
0.10991
0.11905
0.11051
0.12215
0.11079
0.11735
0.10871
0.11695
0.10904
0.11047
0.11766
0.12252
0.11414
0.12362
0.11989
0.12052
0.11576
0.11049
0.11712
0.10913
0.11235
0.11273
0.10789
0.11786
0.10436
0.10684
0.11005
0.09004
0.09887
0.10965
0.0988
0.10419
0.12721
0.11713
0.10401
0.10393
0.10253
0.10182
0.10294
0.10584
0.1089
0.10578
0.11127
0.10632
0.11681
0.10631
0.10188
0.10127
0.10455
0.10399
0.10831
0.09869
0.10565
0.10426
0.09449
0.09715
0.10994
0.11308
0.09444
0.09451
0.09245
0.10085
0.09927
0.09912
0.10782
0.0892
0.09709
0.10181
0.09273
0.10275
0.09352
0.10124
0.0806
0.09105
0.10084
0.10884
0.10062
0.09112
0.09065
0.0985
0.09113
0.09247
0.08637
0.0828
0.09461
0.09197
0.09338
0.099
0.08771
0.08161
0.08796
0.09034
0.09185
0.09386
0.09152
0.08866
0.09716
0.09908
0.08467
0.08544
0.08167
0.09641
0.08237
0.09761
0.09225
0.09079
0.08201
0.0797
0.09413
0.09573
0.09888
0.09211
0.09276
0.0968
0.08342
0.08035
0.09479
0.07833
0.08045
0.08628
0.07154
0.07388
0.10343
0.08038
0.09137
0.08485
0.08228
0.09131
0.08859
0.08492
0.07943
0.08372
0.08683
0.08011
0.09363
0.08238
0.08138
0.10029
0.08268
0.09285
0.09274
0.07892
0.08621
0.06942
0.07888
0.09356
0.06491
0.09146
0.08944
0.07765
0.07806
0.0765
0.07808
0.10981
0.07047
0.07791
0.07501
0.07307
0.08643
0.0883
0.08012
0.08758
0.06434
0.08485
0.06714
0.08348
0.06003
0.07522
0.08622
0.0703
0.07805
0.08127
0.06546
0.07944
0.06702
0.07679
0.07675
0.07835
0.07646
0.0606
0.06547
0.05214
0.07665
0.06886
0.04956
0.07822
0.07427
0.07383
0.06651
0.05953
0.07083
0.05805
0.08021
0.05406
0.06626
0.07691
0.07475
0.05745
0.07209
0.07176
0.06968
0.0518
0.08822
0.0612
0.06815
0.08047
0.07097
0.06135
0.06093
0.05733
0.06143
0.05516
0.04399
0.05563
0.06114
0.06084
0.06531
0.06818
0.09001
0.07858
0.05392
0.06138
0.08829
0.066
0.07832
0.07113
0.06663
0.0843
0.06855
0.04267
0.06062
0.06458
0.06034
0.04424
0.06572
0.0578
0.04841
0.04764
0.05455
0.05034
0.0599
0.0576
0.04043
0.05884
0.06878
0.06045
0.0339
0.05647
0.03117
0.04961
0.05832
0.0638
0.05803
0.03945
0.04887
0.0396
0.04938
0.05023
0.05243
0.0626
0.07273
0.05583
0.05612
0.05262
0.06393
0.0558
0.04367
0.06095
0.0217
0.06071
0.03218
0.04303
0.04908
0.07296
0.06296
0.05578
0.07099
0.04752
0.06006
0.05119
0.05645
0.06134
0.04414
0.04116
0.06677
0.04938
0.0712
0.06838
0.04902
0.04434
0.05536
0.02712
0.04225
0.04823
0.04323
0.06814
0.04805
0.06115
0.05096
0.06345
0.03327
0.03215
0.03366
0.04454
0.05156
0.05064
0.04807
0.05834
0.04049
0.04094
0.05913
0.04282
0.06144
0.04197
0.03622
0.0677
0.06522
0.03252
0.03192
0.05182
0.05474
0.05615
0.04555
0.04448
0.03924
0.026
0.04251
0.045
0.0444
0.05815
0.03352
0.04541
0.02714
0.02904
0.03968
0.05357
0.02834
0.06094
0.04986
0.05319
0.01087
0.03782
0.03541
0.03719
0.0159
0.04414
0.03588
0.04211
0.04513
-0.00151
0.04013
0.03113
0.02961
0.01747
0.03728
0.03562
0.02379
0.01888
0.03752
0.06149
0.02
0.05227
0.06655
0.05158
0.03495
0.01431
0.0162
0.04395
0.0528
0.0286
0.01831
0.05788
0.028
0.03669
0.06366
0.0378
0.05993
0.06528
0.04176
0.05297
0.01587
0.04234
-0.00172
0.03579
0.03302
0.01238
0.0465
0.02485
0.02313
-0.0015
0.05238
0.02807
0.02654
0.02149
0.02309
0.02972
0.02771
0.0334
0.02794
0.0573
0.05578
0.01985
0.04203
0.0212
0.04067
0.03288
0.00591
0.04216
0.03089
0.02826
0.03198
0.04449
0.03811
0.05644
0.03857
0.03726
0.03164
];

S0=S0ccd;
%S0=S0-mean(S0(lambda>300)); %background light substration
%S0=S0(lambda_2>300);
%S0=inter;
%plot(lambda,S0/max(S0),lambda,inter/max(inter),lambda,ref/max(ref));
%S0=S0/max(S0);        %不先normal應該也沒差?
S=interp1(freq,S0,fx);
S(isnan(S))=0;
CS=fft(S,N_t)';     %with minus time
%CS=real(fft(S_padded));     %with minus time
CS_normal=CS/max(abs(CS));
CS=CS(1:length_space_FD);
CS_carrier=real(CS);
CS_envelope=abs(CS);                                        %data 1 to record (need decimate? maybe cut is better)
%% 

%plot(space,CS_normal,space,CS_envelope);

%% After the acquire of envelope


%%  DC PSF FWHM
value_DC_FD=CS_envelope(1);
FWHM_DC_FD=2*(space_FD(find(CS_envelope<0.5*value_DC_FD, 1, 'first'))-space_FD(1));

%%  Interfered PSF FWHM
space_min_for_inter_peak_FD=10;  %10fixed
space_min_for_inter_peak_index_FD=find(space_FD>space_min_for_inter_peak_FD, 1, 'first');
[inter_peakvalue_FD inter_peakindex_FD]=max(CS_envelope(space_min_for_inter_peak_index_FD:end)); %注意! 此處的inter_peakindex_FD會抓錯, 因為CS_envelope從space_min_for_inter_peak_index_FD開始而非0開始
inter_position_FD=space_FD(inter_peakindex_FD+space_min_for_inter_peak_index_FD-1);
FWHM_FD_right=space_FD(find(CS_envelope(space_min_for_inter_peak_index_FD:end)>0.5*inter_peakvalue_FD, 1, 'last'));
FWHM_FD_left=space_FD(find(CS_envelope(space_min_for_inter_peak_index_FD:end)>0.5*inter_peakvalue_FD, 1, 'first'));
FWHM_inter_FD=FWHM_FD_right-FWHM_FD_left;
FWHM_FD=FWHM_inter_FD;
interference_efficiency=inter_peakvalue_FD/value_DC_FD*2;
%plot(space_FD,CS_normal,space_FD,CS_envelope);
%dlmwrite('Interferogram.txt',M,'delimiter','\t','newline','pc');
%BW=lambda(find(S0>0.5,1,'last'))-lambda(find(S0>0.5,1,'first'));
%x_Res=x(find(CS_envelope>0.5,1,'last'))-x(find(CS_envelope>0.5,1,'first'))
%;
%plot(space_TD,inter_position_FD,space_TD,interference_efficiency,space_TD,FWHM_FD);
%plot(space_TD,inter_position_FD,space_TD,FWHM_FD);
interference_efficiency=interference_efficiency';
inter_position_FD=inter_position_FD';

%imagesc(10*log10(CS_envelope./maxs)); figure(gcf)
%imagesc(10*log10(CS_envelope(2500:3500,16:116)./max(max(CS_envelope(2500:3500,16:116),[],1))),'xdata',[0:5:500],'ydata',[0:0.009375850226843:0.009375850226843*1000]); figure(gcf);
%dlmwrite('power_envelope.txt',power_envelope,'delimiter','\t','newline','pc');
%dlmwrite('power.txt',power,'delimiter','\t','newline','pc');
%dlmwrite('space_TD.txt',space_TD,'delimiter','\t','newline','pc');
%dlmwrite('CS_envelope.txt',CS_envelope,'delimiter','\t','newline','pc');
%dlmwrite('interference_efficiency.txt',interference_efficiency','delimiter','\t','newline','pc');
%dlmwrite('dispersion_expansion_ratio.txt',dispersion_expansion_ratio','delimiter','\t','newline','pc');
%dlmwrite('inter_position_FD.txt',inter_position_FD','delimiter','\t','newl
%ine','pc');


